2q (degree),Normalized Intensity (a.u)
12.6904,0.15538
12.6954,0.15538
12.7004,0.15538
12.7054,0.15538
12.7104,0.15538
12.7154,0.15538
12.7204,0.15538
12.7254,0.15539
12.7304,0.15539
12.7354,0.1554
12.7404,0.15541
12.7454,0.15542
12.7504,0.15543
12.7554,0.15544
12.7604,0.15545
12.7654,0.15546
12.7704,0.15547
12.7754,0.15547
12.7804,0.15548
12.7854,0.15549
12.7904,0.1555
12.7954,0.15551
12.8004,0.15782
12.8054,0.15708
12.8104,0.15461
12.8154,0.15354
12.8204,0.1514
12.8254,0.1481
12.8304,0.16483
12.8354,0.15976
12.8404,0.16349
12.8454,0.17076
12.8504,0.1737
12.8554,0.17919
12.8604,0.1869
12.8654,0.1818
12.8704,0.18377
12.8754,0.17843
12.8804,0.18115
12.8854,0.18354
12.8904,0.18861
12.8954,0.18619
12.9004,0.18416
12.9054,0.17605
12.9104,0.16896
12.9154,0.16133
12.9204,0.16418
12.9254,0.16821
12.9304,0.17988
12.9354,0.17759
12.9404,0.17961
12.9454,0.17508
12.9504,0.17011
12.9554,0.16667
12.9604,0.16413
12.9654,0.1668
12.9704,0.17708
12.9754,0.16525
12.9804,0.16165
12.9854,0.16109
12.9904,0.1662
12.9954,0.16617
13.0004,0.17188
13.0054,0.17571
13.0104,0.17689
13.0154,0.18309
13.0204,0.18324
13.0254,0.17944
13.0304,0.1907
13.0354,0.1932
13.0404,0.19279
13.0454,0.19043
13.0504,0.19473
13.0554,0.18814
13.0604,0.1851
13.0654,0.18554
13.0704,0.18307
13.0754,0.17829
13.0804,0.17873
13.0854,0.1816
13.0904,0.1817
13.0954,0.18141
13.1004,0.18093
13.1054,0.17241
13.1104,0.17115
13.1154,0.17146
13.1204,0.17639
13.1254,0.17901
13.1304,0.18458
13.1354,0.18528
13.1404,0.18669
13.1454,0.1847
13.1504,0.18174
13.1554,0.17757
13.1604,0.17954
13.1654,0.18083
13.1704,0.18094
13.1754,0.16815
13.1804,0.16627
13.1854,0.16676
13.1904,0.16903
13.1954,0.16779
13.2004,0.16549
13.2054,0.16455
13.2104,0.16699
13.2154,0.16638
13.2204,0.17007
13.2254,0.17377
13.2304,0.17799
13.2354,0.17614
13.2404,0.17657
13.2454,0.17169
13.2504,0.1719
13.2554,0.17594
13.2604,0.17454
13.2654,0.17207
13.2704,0.17126
13.2754,0.16391
13.2804,0.16102
13.2854,0.16278
13.2904,0.16354
13.2954,0.16307
13.3004,0.15948
13.3054,0.15439
13.3104,0.15285
13.3154,0.15114
13.3204,0.15196
13.3254,0.15279
13.3304,0.15712
13.3354,0.1598
13.3404,0.16068
13.3454,0.16174
13.3504,0.1629
13.3554,0.1651
13.3604,0.16822
13.3654,0.16899
13.3704,0.17344
13.3754,0.16915
13.3804,0.16796
13.3854,0.16551
13.3904,0.16423
13.3954,0.16636
13.4004,0.16433
13.4054,0.15891
13.4104,0.16106
13.4154,0.15974
13.4204,0.15606
13.4254,0.15369
13.4304,0.15678
13.4354,0.15703
13.4404,0.15935
13.4454,0.15867
13.4504,0.15535
13.4554,0.15736
13.4604,0.15988
13.4654,0.16229
13.4704,0.16188
13.4754,0.16105
13.4804,0.16138
13.4854,0.16097
13.4904,0.1616
13.4954,0.16064
13.5004,0.16183
13.5054,0.15968
13.5104,0.15761
13.5154,0.15817
13.5204,0.15469
13.5254,0.15765
13.5304,0.16108
13.5354,0.1613
13.5404,0.16306
13.5454,0.16235
13.5504,0.165
13.5554,0.16584
13.5604,0.17014
13.5654,0.17176
13.5704,0.17318
13.5754,0.17132
13.5804,0.17109
13.5854,0.16869
13.5904,0.16913
13.5954,0.16704
13.6004,0.16291
13.6054,0.15741
13.6104,0.15635
13.6154,0.15532
13.6204,0.15371
13.6254,0.15382
13.6304,0.1586
13.6354,0.16013
13.6404,0.16325
13.6454,0.16351
13.6504,0.16439
13.6554,0.16955
13.6604,0.17341
13.6654,0.17468
13.6704,0.17415
13.6754,0.17269
13.6804,0.17046
13.6854,0.16821
13.6904,0.16533
13.6954,0.16134
13.7004,0.15875
13.7054,0.15728
13.7104,0.15406
13.7154,0.15338
13.7204,0.15446
13.7254,0.15634
13.7304,0.16012
13.7354,0.15997
13.7404,0.16028
13.7454,0.16115
13.7504,0.1625
13.7554,0.16533
13.7604,0.16664
13.7654,0.16958
13.7704,0.16754
13.7754,0.16306
13.7804,0.16046
13.7854,0.15952
13.7904,0.16135
13.7954,0.16148
13.8004,0.159
13.8054,0.15596
13.8104,0.15372
13.8154,0.15317
13.8204,0.15384
13.8254,0.15516
13.8304,0.15726
13.8354,0.15663
13.8404,0.15587
13.8454,0.15363
13.8504,0.15347
13.8554,0.15752
13.8604,0.16181
13.8654,0.16393
13.8704,0.16507
13.8754,0.16278
13.8804,0.16377
13.8854,0.1632
13.8904,0.16583
13.8954,0.16588
13.9004,0.16521
13.9054,0.16307
13.9104,0.16153
13.9154,0.16338
13.9204,0.1639
13.9254,0.16416
13.9304,0.16453
13.9354,0.1644
13.9404,0.16485
13.9454,0.16539
13.9504,0.16554
13.9554,0.16746
13.9604,0.1696
13.9654,0.16901
13.9704,0.16571
13.9754,0.1626
13.9804,0.16395
13.9854,0.16717
13.9904,0.16658
13.9954,0.16659
14.0004,0.16365
14.0054,0.16275
14.0104,0.16451
14.0154,0.16464
14.0204,0.16707
14.0254,0.16911
14.0304,0.17252
14.0354,0.17161
14.0404,0.16749
14.0454,0.16845
14.0504,0.16858
14.0554,0.17043
14.0604,0.17156
14.0654,0.17041
14.0704,0.16926
14.0754,0.16539
14.0804,0.16565
14.0854,0.16319
14.0904,0.16271
14.0954,0.16685
14.1004,0.16602
14.1054,0.16435
14.1104,0.16359
14.1154,0.15957
14.1204,0.15653
14.1254,0.1557
14.1304,0.15749
14.1354,0.1557
14.1404,0.15643
14.1454,0.15599
14.1504,0.15399
14.1554,0.15345
14.1604,0.15482
14.1654,0.15417
14.1704,0.15748
14.1754,0.15809
14.1804,0.1572
14.1854,0.15677
14.1904,0.15785
14.1954,0.15992
14.2004,0.15997
14.2054,0.15807
14.2104,0.15836
14.2154,0.15972
14.2204,0.16067
14.2254,0.16152
14.2304,0.16351
14.2354,0.16648
14.2404,0.16865
14.2454,0.16927
14.2504,0.16815
14.2554,0.16899
14.2604,0.17142
14.2654,0.17336
14.2704,0.17105
14.2754,0.16941
14.2804,0.16869
14.2854,0.16774
14.2904,0.16682
14.2954,0.16745
14.3004,0.16654
14.3054,0.16429
14.3104,0.16445
14.3154,0.16358
14.3204,0.16109
14.3254,0.16316
14.3304,0.16613
14.3354,0.16734
14.3404,0.16848
14.3454,0.1677
14.3504,0.16493
14.3554,0.16478
14.3604,0.16495
14.3654,0.16373
14.3704,0.16344
14.3754,0.16329
14.3804,0.16282
14.3854,0.1622
14.3904,0.16217
14.3954,0.1629
14.4004,0.165
14.4054,0.16439
14.4104,0.16511
14.4154,0.1676
14.4204,0.16924
14.4254,0.1719
14.4304,0.17332
14.4354,0.17408
14.4404,0.17471
14.4454,0.17368
14.4504,0.17075
14.4554,0.16774
14.4604,0.16869
14.4654,0.16864
14.4704,0.16841
14.4754,0.1667
14.4804,0.16413
14.4854,0.16261
14.4904,0.16132
14.4954,0.15967
14.5004,0.15881
14.5054,0.16034
14.5104,0.16249
14.5154,0.16173
14.5204,0.16208
14.5254,0.16059
14.5304,0.16092
14.5354,0.16112
14.5404,0.16284
14.5454,0.16458
14.5504,0.16476
14.5554,0.16581
14.5604,0.16594
14.5654,0.16658
14.5704,0.16775
14.5754,0.16439
14.5804,0.16421
14.5854,0.16288
14.5904,0.16314
14.5954,0.16374
14.6004,0.16316
14.6054,0.16259
14.6104,0.16189
14.6154,0.16172
14.6204,0.16112
14.6254,0.16058
14.6304,0.16261
14.6354,0.16192
14.6404,0.16256
14.6454,0.16209
14.6504,0.16027
14.6554,0.15711
14.6604,0.15656
14.6654,0.15838
14.6704,0.15866
14.6754,0.15626
14.6804,0.15469
14.6854,0.15451
14.6904,0.15613
14.6954,0.15681
14.7004,0.15523
14.7054,0.15403
14.7104,0.15489
14.7154,0.1559
14.7204,0.15478
14.7254,0.15362
14.7304,0.15728
14.7354,0.15963
14.7404,0.16063
14.7454,0.1611
14.7504,0.16187
14.7554,0.16182
14.7604,0.16343
14.7654,0.16583
14.7704,0.16561
14.7754,0.16569
14.7804,0.16642
14.7854,0.16495
14.7904,0.16456
14.7954,0.16537
14.8004,0.16508
14.8054,0.1638
14.8104,0.16531
14.8154,0.1643
14.8204,0.16107
14.8254,0.16075
14.8304,0.16201
14.8354,0.16223
14.8404,0.16225
14.8454,0.16197
14.8504,0.1586
14.8554,0.15675
14.8604,0.15692
14.8654,0.15763
14.8704,0.15631
14.8754,0.15846
14.8804,0.16034
14.8854,0.1599
14.8904,0.15987
14.8954,0.15927
14.9004,0.15808
14.9054,0.15835
14.9104,0.15848
14.9154,0.15988
14.9204,0.16059
14.9254,0.16282
14.9304,0.16356
14.9354,0.16263
14.9404,0.16168
14.9454,0.16073
14.9504,0.1613
14.9554,0.16203
14.9604,0.1627
14.9654,0.16154
14.9704,0.15947
14.9754,0.1573
14.9804,0.1576
14.9854,0.15782
14.9904,0.15749
14.9954,0.15637
15.0004,0.15692
15.0054,0.15512
15.0104,0.15615
15.0154,0.15854
15.0204,0.15944
15.0254,0.16003
15.0304,0.16099
15.0354,0.15912
15.0404,0.15811
15.0454,0.15739
15.0504,0.1577
15.0554,0.15771
15.0604,0.15828
15.0654,0.15773
15.0704,0.15467
15.0754,0.15423
15.0804,0.15357
15.0854,0.1537
15.0904,0.15593
15.0954,0.15631
15.1004,0.15785
15.1054,0.15921
15.1104,0.15762
15.1154,0.15695
15.1204,0.156
15.1254,0.15667
15.1304,0.15772
15.1354,0.15816
15.1404,0.15761
15.1454,0.15607
15.1504,0.1564
15.1554,0.15445
15.1604,0.15301
15.1654,0.15435
15.1704,0.15537
15.1754,0.15523
15.1804,0.15692
15.1854,0.15743
15.1904,0.15872
15.1954,0.1595
15.2004,0.16065
15.2054,0.15888
15.2104,0.16023
15.2154,0.16045
15.2204,0.16068
15.2254,0.16119
15.2304,0.16132
15.2354,0.15928
15.2404,0.1583
15.2454,0.1566
15.2504,0.15631
15.2554,0.15612
15.2604,0.15528
15.2654,0.15621
15.2704,0.15668
15.2754,0.1548
15.2804,0.15342
15.2854,0.15462
15.2904,0.15641
15.2954,0.15736
15.3004,0.15802
15.3054,0.15739
15.3104,0.15772
15.3154,0.16006
15.3204,0.15951
15.3254,0.15866
15.3304,0.15864
15.3354,0.15946
15.3404,0.15987
15.3454,0.16133
15.3504,0.16226
15.3554,0.16031
15.3604,0.15809
15.3654,0.15856
15.3704,0.15904
15.3754,0.1577
15.3804,0.15794
15.3854,0.15997
15.3904,0.16199
15.3954,0.16002
15.4004,0.15646
15.4054,0.15385
15.4104,0.15639
15.4154,0.15945
15.4204,0.15829
15.4254,0.15665
15.4304,0.15684
15.4354,0.15704
15.4404,0.15706
15.4454,0.15481
15.4504,0.15642
15.4554,0.1572
15.4604,0.15843
15.4654,0.15801
15.4704,0.15772
15.4754,0.15763
15.4804,0.15799
15.4854,0.15878
15.4904,0.15807
15.4954,0.15661
15.5004,0.15495
15.5054,0.15428
15.5104,0.15626
15.5154,0.15618
15.5204,0.15556
15.5254,0.15464
15.5304,0.15478
15.5354,0.15494
15.5404,0.15517
15.5454,0.15605
15.5504,0.15701
15.5554,0.15831
15.5604,0.15754
15.5654,0.15589
15.5704,0.15607
15.5754,0.15536
15.5804,0.1561
15.5854,0.15645
15.5904,0.15716
15.5954,0.15877
15.6004,0.15836
15.6054,0.15732
15.6104,0.15942
15.6154,0.16119
15.6204,0.16049
15.6254,0.1593
15.6304,0.16042
15.6354,0.1608
15.6404,0.16022
15.6454,0.15908
15.6504,0.15606
15.6554,0.15611
15.6604,0.15781
15.6654,0.15609
15.6704,0.15378
15.6754,0.15406
15.6804,0.15698
15.6854,0.15864
15.6904,0.15789
15.6954,0.15903
15.7004,0.16048
15.7054,0.1619
15.7104,0.16377
15.7154,0.16292
15.7204,0.16281
15.7254,0.16444
15.7304,0.16493
15.7354,0.163
15.7404,0.16092
15.7454,0.16171
15.7504,0.1608
15.7554,0.15847
15.7604,0.15812
15.7654,0.15707
15.7704,0.15709
15.7754,0.15852
15.7804,0.15887
15.7854,0.15859
15.7904,0.1579
15.7954,0.15858
15.8004,0.15714
15.8054,0.15694
15.8104,0.15764
15.8154,0.15735
15.8204,0.15732
15.8254,0.15751
15.8304,0.15582
15.8354,0.15482
15.8404,0.1542
15.8454,0.155
15.8504,0.15464
15.8554,0.15559
15.8604,0.1555
15.8654,0.15616
15.8704,0.15667
15.8754,0.15616
15.8804,0.1569
15.8854,0.15824
15.8904,0.15921
15.8954,0.16065
15.9004,0.15971
15.9054,0.15963
15.9104,0.15873
15.9154,0.15832
15.9204,0.15891
15.9254,0.15853
15.9304,0.15846
15.9354,0.15628
15.9404,0.15638
15.9454,0.15632
15.9504,0.15609
15.9554,0.15753
15.9604,0.15666
15.9654,0.15764
15.9704,0.15872
15.9754,0.15663
15.9804,0.15753
15.9854,0.15786
15.9904,0.15964
15.9954,0.15899
16.0004,0.1566
16.0054,0.15563
16.0104,0.15499
16.0154,0.15518
16.0204,0.15503
16.0254,0.15505
16.0304,0.15708
16.0354,0.15617
16.0404,0.15612
16.0454,0.15605
16.0504,0.15638
16.0554,0.15782
16.0604,0.15876
16.0654,0.15879
16.0704,0.15972
16.0754,0.16027
16.0804,0.16087
16.0854,0.15974
16.0904,0.15995
16.0954,0.16025
16.1004,0.15985
16.1054,0.15871
16.1104,0.16005
16.1154,0.15955
16.1204,0.15953
16.1254,0.15926
16.1304,0.15874
16.1354,0.15812
16.1404,0.15863
16.1454,0.15879
16.1504,0.15892
16.1554,0.15964
16.1604,0.15965
16.1654,0.15868
16.1704,0.15882
16.1754,0.15758
16.1804,0.15811
16.1854,0.15813
16.1904,0.15736
16.1954,0.15746
16.2004,0.15557
16.2054,0.15411
16.2104,0.15394
16.2154,0.15503
16.2204,0.15524
16.2254,0.15589
16.2304,0.15698
16.2354,0.15589
16.2404,0.15406
16.2454,0.15471
16.2504,0.15596
16.2554,0.1573
16.2604,0.15658
16.2654,0.15629
16.2704,0.15558
16.2754,0.15499
16.2804,0.15605
16.2854,0.15588
16.2904,0.15657
16.2954,0.1574
16.3004,0.1572
16.3054,0.15635
16.3104,0.15681
16.3154,0.15769
16.3204,0.15697
16.3254,0.15688
16.3304,0.15688
16.3354,0.15546
16.3404,0.15616
16.3454,0.15639
16.3504,0.15675
16.3554,0.1554
16.3604,0.15402
16.3654,0.15401
16.3704,0.15543
16.3754,0.1556
16.3804,0.15668
16.3854,0.15767
16.3904,0.15679
16.3954,0.15664
16.4004,0.15711
16.4054,0.1592
16.4104,0.16143
16.4154,0.16238
16.4204,0.16139
16.4254,0.161
16.4304,0.16085
16.4354,0.16049
16.4404,0.16104
16.4454,0.16215
16.4504,0.16201
16.4554,0.16092
16.4604,0.15946
16.4654,0.15817
16.4704,0.1589
16.4754,0.15963
16.4804,0.15925
16.4854,0.15938
16.4904,0.15922
16.4954,0.15907
16.5004,0.15888
16.5054,0.15832
16.5104,0.15957
16.5154,0.15955
16.5204,0.15922
16.5254,0.15728
16.5304,0.15786
16.5354,0.1581
16.5404,0.15909
16.5454,0.15924
16.5504,0.15888
16.5554,0.15756
16.5604,0.15676
16.5654,0.15689
16.5704,0.15714
16.5754,0.15674
16.5804,0.15732
16.5854,0.15751
16.5904,0.15839
16.5954,0.15785
16.6004,0.15699
16.6054,0.15512
16.6104,0.15553
16.6154,0.15673
16.6204,0.15598
16.6254,0.15625
16.6304,0.15705
16.6354,0.15776
16.6404,0.15761
16.6454,0.15782
16.6504,0.15882
16.6554,0.15921
16.6604,0.15981
16.6654,0.16132
16.6704,0.16192
16.6754,0.1616
16.6804,0.16217
16.6854,0.16263
16.6904,0.16283
16.6954,0.16179
16.7004,0.15909
16.7054,0.15706
16.7104,0.15673
16.7154,0.15722
16.7204,0.15628
16.7254,0.15496
16.7304,0.15595
16.7354,0.15444
16.7404,0.15384
16.7454,0.15445
16.7504,0.15628
16.7554,0.15598
16.7604,0.15629
16.7654,0.15708
16.7704,0.15781
16.7754,0.15832
16.7804,0.15992
16.7854,0.16067
16.7904,0.16191
16.7954,0.16265
16.8004,0.16074
16.8054,0.15884
16.8104,0.16089
16.8154,0.16187
16.8204,0.16153
16.8254,0.16107
16.8304,0.1601
16.8354,0.15939
16.8404,0.15817
16.8454,0.15831
16.8504,0.15809
16.8554,0.15773
16.8604,0.15655
16.8654,0.1569
16.8704,0.15679
16.8754,0.15616
16.8804,0.1561
16.8854,0.157
16.8904,0.15692
16.8954,0.15772
16.9004,0.15576
16.9054,0.15476
16.9104,0.15635
16.9154,0.15699
16.9204,0.15574
16.9254,0.15548
16.9304,0.15674
16.9354,0.15691
16.9404,0.15651
16.9454,0.15716
16.9504,0.15741
16.9554,0.1588
16.9604,0.15877
16.9654,0.15809
16.9704,0.15849
16.9754,0.15938
16.9804,0.15961
16.9854,0.15915
16.9904,0.15872
16.9954,0.15901
17.0004,0.15803
17.0054,0.15596
17.0104,0.15685
17.0154,0.15849
17.0204,0.16027
17.0254,0.16082
17.0304,0.15973
17.0354,0.16032
17.0404,0.16117
17.0454,0.16151
17.0504,0.16098
17.0554,0.16059
17.0604,0.16041
17.0654,0.15872
17.0704,0.15685
17.0754,0.15494
17.0804,0.15621
17.0854,0.15672
17.0904,0.15598
17.0954,0.15514
17.1004,0.15526
17.1054,0.15567
17.1104,0.1569
17.1154,0.1593
17.1204,0.16074
17.1254,0.16223
17.1304,0.16211
17.1354,0.16088
17.1404,0.16159
17.1454,0.16158
17.1504,0.16079
17.1554,0.16085
17.1604,0.16097
17.1654,0.16041
17.1704,0.16016
17.1754,0.15884
17.1804,0.15831
17.1854,0.15733
17.1904,0.15663
17.1954,0.15578
17.2004,0.15551
17.2054,0.15657
17.2104,0.15711
17.2154,0.1565
17.2204,0.15609
17.2254,0.154
17.2304,0.15416
17.2354,0.15441
17.2404,0.15538
17.2454,0.15617
17.2504,0.15776
17.2554,0.1571
17.2604,0.15563
17.2654,0.15485
17.2704,0.15566
17.2754,0.15529
17.2804,0.1561
17.2854,0.15656
17.2904,0.15715
17.2954,0.1573
17.3004,0.15659
17.3054,0.15539
17.3104,0.1556
17.3154,0.15641
17.3204,0.15536
17.3254,0.15445
17.3304,0.15596
17.3354,0.15582
17.3404,0.1556
17.3454,0.15502
17.3504,0.15569
17.3554,0.15468
17.3604,0.15428
17.3654,0.15599
17.3704,0.15593
17.3754,0.15657
17.3804,0.15789
17.3854,0.15697
17.3904,0.15695
17.3954,0.15713
17.4004,0.15666
17.4054,0.15467
17.4104,0.15677
17.4154,0.15774
17.4204,0.15691
17.4254,0.15715
17.4304,0.15688
17.4354,0.15506
17.4404,0.15633
17.4454,0.15712
17.4504,0.15655
17.4554,0.15682
17.4604,0.15877
17.4654,0.15882
17.4704,0.15775
17.4754,0.15717
17.4804,0.15744
17.4854,0.15823
17.4904,0.15983
17.4954,0.15819
17.5004,0.15684
17.5054,0.15666
17.5104,0.15602
17.5154,0.15611
17.5204,0.15504
17.5254,0.15597
17.5304,0.15734
17.5354,0.15769
17.5404,0.15712
17.5454,0.15717
17.5504,0.15777
17.5554,0.15812
17.5604,0.15819
17.5654,0.15932
17.5704,0.15862
17.5754,0.1589
17.5804,0.15819
17.5854,0.15707
17.5904,0.15643
17.5954,0.15663
17.6004,0.15604
17.6054,0.1551
17.6104,0.15535
17.6154,0.15644
17.6204,0.15593
17.6254,0.15589
17.6304,0.15487
17.6354,0.15399
17.6404,0.15522
17.6454,0.15645
17.6504,0.15727
17.6554,0.15651
17.6604,0.15715
17.6654,0.15794
17.6704,0.15816
17.6754,0.15829
17.6804,0.15917
17.6854,0.1614
17.6904,0.1631
17.6954,0.16204
17.7004,0.15962
17.7054,0.15778
17.7104,0.15843
17.7154,0.15816
17.7204,0.15783
17.7254,0.15724
17.7304,0.15853
17.7354,0.15885
17.7404,0.15843
17.7454,0.15855
17.7504,0.15854
17.7554,0.15903
17.7604,0.16034
17.7654,0.16131
17.7704,0.16211
17.7754,0.16187
17.7804,0.16339
17.7854,0.16335
17.7904,0.16183
17.7954,0.16127
17.8004,0.16033
17.8054,0.16045
17.8104,0.16153
17.8154,0.16161
17.8204,0.16036
17.8254,0.15989
17.8304,0.15926
17.8354,0.1581
17.8404,0.15714
17.8454,0.15816
17.8504,0.15841
17.8554,0.15883
17.8604,0.15858
17.8654,0.15794
17.8704,0.15659
17.8754,0.15667
17.8804,0.15719
17.8854,0.15832
17.8904,0.15732
17.8954,0.15675
17.9004,0.15647
17.9054,0.15597
17.9104,0.15536
17.9154,0.15487
17.9204,0.15589
17.9254,0.15597
17.9304,0.15556
17.9354,0.1548
17.9404,0.15428
17.9454,0.15467
17.9504,0.15571
17.9554,0.15641
17.9604,0.15646
17.9654,0.15835
17.9704,0.1596
17.9754,0.15914
17.9804,0.16053
17.9854,0.16166
17.9904,0.16361
17.9954,0.16486
18.0004,0.16536
18.0054,0.16432
18.0104,0.16339
18.0154,0.1634
18.0204,0.16082
18.0254,0.16045
18.0304,0.16131
18.0354,0.16132
18.0404,0.16096
18.0454,0.15977
18.0504,0.15819
18.0554,0.1568
18.0604,0.15675
18.0654,0.15782
18.0704,0.15851
18.0754,0.15927
18.0804,0.15968
18.0854,0.15874
18.0904,0.15937
18.0954,0.15966
18.1004,0.15845
18.1054,0.15866
18.1104,0.15998
18.1154,0.16054
18.1204,0.15904
18.1254,0.15751
18.1304,0.15721
18.1354,0.15637
18.1404,0.15656
18.1454,0.15559
18.1504,0.15605
18.1554,0.15679
18.1604,0.15626
18.1654,0.15604
18.1704,0.15645
18.1754,0.1577
18.1804,0.15919
18.1854,0.16074
18.1904,0.16182
18.1954,0.16235
18.2004,0.16292
18.2054,0.16192
18.2104,0.16256
18.2154,0.1626
18.2204,0.16189
18.2254,0.16086
18.2304,0.15952
18.2354,0.15846
18.2404,0.15813
18.2454,0.15729
18.2504,0.15683
18.2554,0.1558
18.2604,0.15538
18.2654,0.15566
18.2704,0.15623
18.2754,0.15553
18.2804,0.15521
18.2854,0.15521
18.2904,0.15702
18.2954,0.15673
18.3004,0.15701
18.3054,0.15759
18.3104,0.15892
18.3154,0.15992
18.3204,0.15945
18.3254,0.15921
18.3304,0.1599
18.3354,0.16008
18.3404,0.16025
18.3454,0.15901
18.3504,0.15917
18.3554,0.15837
18.3604,0.15782
18.3654,0.15803
18.3704,0.15769
18.3754,0.15787
18.3804,0.16025
18.3854,0.16214
18.3904,0.16333
18.3954,0.16468
18.4004,0.16484
18.4054,0.16504
18.4104,0.16594
18.4154,0.16581
18.4204,0.16444
18.4254,0.16313
18.4304,0.16227
18.4354,0.1604
18.4404,0.15912
18.4454,0.15944
18.4504,0.15935
18.4554,0.15902
18.4604,0.15768
18.4654,0.15768
18.4704,0.15789
18.4754,0.15828
18.4804,0.15951
18.4854,0.16117
18.4904,0.16266
18.4954,0.16303
18.5004,0.1621
18.5054,0.16118
18.5104,0.16128
18.5154,0.16264
18.5204,0.16331
18.5254,0.16233
18.5304,0.16085
18.5354,0.16081
18.5404,0.16037
18.5454,0.15878
18.5504,0.15864
18.5554,0.15741
18.5604,0.15594
18.5654,0.15569
18.5704,0.15439
18.5754,0.15357
18.5804,0.15476
18.5854,0.15627
18.5904,0.15658
18.5954,0.15614
18.6004,0.15517
18.6054,0.1538
18.6104,0.15462
18.6154,0.1559
18.6204,0.15619
18.6254,0.1574
18.6304,0.15819
18.6354,0.15709
18.6404,0.1569
18.6454,0.15735
18.6504,0.15664
18.6554,0.15863
18.6604,0.15993
18.6654,0.16113
18.6704,0.16248
18.6754,0.16331
18.6804,0.16303
18.6854,0.16057
18.6904,0.1612
18.6954,0.16243
18.7004,0.16165
18.7054,0.161
18.7104,0.16051
18.7154,0.16105
18.7204,0.16092
18.7254,0.16011
18.7304,0.15991
18.7354,0.15983
18.7404,0.1614
18.7454,0.16174
18.7504,0.16077
18.7554,0.15953
18.7604,0.15993
18.7654,0.15954
18.7704,0.15886
18.7754,0.15759
18.7804,0.15822
18.7854,0.15819
18.7904,0.15879
18.7954,0.159
18.8004,0.15954
18.8054,0.15984
18.8104,0.16146
18.8154,0.16219
18.8204,0.16326
18.8254,0.16372
18.8304,0.16461
18.8354,0.16388
18.8404,0.16319
18.8454,0.16271
18.8504,0.16326
18.8554,0.16187
18.8604,0.16114
18.8654,0.16205
18.8704,0.16143
18.8754,0.16039
18.8804,0.16036
18.8854,0.1604
18.8904,0.16135
18.8954,0.16222
18.9004,0.1609
18.9054,0.16062
18.9104,0.16176
18.9154,0.16213
18.9204,0.16066
18.9254,0.16082
18.9304,0.1607
18.9354,0.15914
18.9404,0.15892
18.9454,0.15931
18.9504,0.15977
18.9554,0.16102
18.9604,0.1597
18.9654,0.15741
18.9704,0.15676
18.9754,0.15653
18.9804,0.15684
18.9854,0.15693
18.9904,0.15686
18.9954,0.15715
19.0004,0.15451
19.0054,0.15308
19.0104,0.1544
19.0154,0.15466
19.0204,0.15645
19.0254,0.1565
19.0304,0.15696
19.0354,0.15665
19.0404,0.15607
19.0454,0.15805
19.0504,0.15757
19.0554,0.15862
19.0604,0.15915
19.0654,0.15842
19.0704,0.16026
19.0754,0.16025
19.0804,0.16149
19.0854,0.16202
19.0904,0.16269
19.0954,0.16446
19.1004,0.16371
19.1054,0.16328
19.1104,0.1637
19.1154,0.16432
19.1204,0.16359
19.1254,0.16277
19.1304,0.16163
19.1354,0.1609
19.1404,0.15938
19.1454,0.15954
19.1504,0.1581
19.1554,0.1562
19.1604,0.15564
19.1654,0.15598
19.1704,0.15586
19.1754,0.15465
19.1804,0.15415
19.1854,0.15462
19.1904,0.15532
19.1954,0.15683
19.2004,0.15594
19.2054,0.15608
19.2104,0.15775
19.2154,0.15885
19.2204,0.15801
19.2254,0.15797
19.2304,0.15937
19.2354,0.16011
19.2404,0.16062
19.2454,0.15945
19.2504,0.15951
19.2554,0.15971
19.2604,0.15819
19.2654,0.15841
19.2704,0.1589
19.2754,0.15953
19.2804,0.1591
19.2854,0.1595
19.2904,0.15823
19.2954,0.15833
19.3004,0.15875
19.3054,0.15793
19.3104,0.15913
19.3154,0.16033
19.3204,0.15954
19.3254,0.1583
19.3304,0.15793
19.3354,0.15818
19.3404,0.15705
19.3454,0.15699
19.3504,0.15729
19.3554,0.15817
19.3604,0.15836
19.3654,0.15854
19.3704,0.15878
19.3754,0.15933
19.3804,0.16042
19.3854,0.16058
19.3904,0.16227
19.3954,0.16334
19.4004,0.16386
19.4054,0.16317
19.4104,0.16202
19.4154,0.16128
19.4204,0.15937
19.4254,0.15817
19.4304,0.15839
19.4354,0.15834
19.4404,0.15847
19.4454,0.15498
19.4504,0.15481
19.4554,0.15466
19.4604,0.1564
19.4654,0.15545
19.4704,0.15585
19.4754,0.15561
19.4804,0.15693
19.4854,0.15651
19.4904,0.15577
19.4954,0.15563
19.5004,0.15655
19.5054,0.15504
19.5104,0.15465
19.5154,0.15472
19.5204,0.1558
19.5254,0.1564
19.5304,0.15633
19.5354,0.15757
19.5404,0.1584
19.5454,0.15864
19.5504,0.15887
19.5554,0.1585
19.5604,0.15905
19.5654,0.15898
19.5704,0.15765
19.5754,0.15855
19.5804,0.15869
19.5854,0.15902
19.5904,0.15815
19.5954,0.15731
19.6004,0.1573
19.6054,0.15641
19.6104,0.1573
19.6154,0.15712
19.6204,0.1571
19.6254,0.1564
19.6304,0.15509
19.6354,0.15407
19.6404,0.1554
19.6454,0.15481
19.6504,0.15547
19.6554,0.15551
19.6604,0.15637
19.6654,0.15552
19.6704,0.15511
19.6754,0.15517
19.6804,0.15564
19.6854,0.15677
19.6904,0.15761
19.6954,0.15653
19.7004,0.15636
19.7054,0.15554
19.7104,0.15623
19.7154,0.1561
19.7204,0.15679
19.7254,0.15822
19.7304,0.16012
19.7354,0.16045
19.7404,0.15931
19.7454,0.15889
19.7504,0.15975
19.7554,0.16146
19.7604,0.16231
19.7654,0.16307
19.7704,0.16416
19.7754,0.16457
19.7804,0.16504
19.7854,0.16374
19.7904,0.16413
19.7954,0.16549
19.8004,0.16538
19.8054,0.16607
19.8104,0.16479
19.8154,0.1643
19.8204,0.16172
19.8254,0.15979
19.8304,0.15922
19.8354,0.15777
19.8404,0.15829
19.8454,0.15705
19.8504,0.15664
19.8554,0.15557
19.8604,0.15455
19.8654,0.15472
19.8704,0.15519
19.8754,0.15687
19.8804,0.15841
19.8854,0.1593
19.8904,0.15962
19.8954,0.15879
19.9004,0.15942
19.9054,0.15891
19.9104,0.15956
19.9154,0.15737
19.9204,0.15687
19.9254,0.15651
19.9304,0.1553
19.9354,0.15391
19.9404,0.15379
19.9454,0.15497
19.9504,0.15662
19.9554,0.15508
19.9604,0.15474
19.9654,0.15624
19.9704,0.15863
19.9754,0.1595
19.9804,0.15976
19.9854,0.1602
19.9904,0.15982
19.9954,0.15905
20.0004,0.15805
20.0054,0.15759
20.0104,0.15966
20.0154,0.16053
20.0204,0.15983
20.0254,0.15936
20.0304,0.15869
20.0354,0.1589
20.0404,0.15934
20.0454,0.16015
20.0504,0.16021
20.0554,0.15937
20.0604,0.1584
20.0654,0.1585
20.0704,0.15784
20.0754,0.15814
20.0804,0.15862
20.0854,0.15909
20.0904,0.15871
20.0954,0.15868
20.1004,0.15816
20.1054,0.15836
20.1104,0.15872
20.1154,0.15887
20.1204,0.15836
20.1254,0.15749
20.1304,0.15758
20.1354,0.15797
20.1404,0.15796
20.1454,0.15841
20.1504,0.1599
20.1554,0.16039
20.1604,0.1596
20.1654,0.16106
20.1704,0.16044
20.1754,0.15884
20.1804,0.15873
20.1854,0.15835
20.1904,0.15814
20.1954,0.15797
20.2004,0.15825
20.2054,0.15537
20.2104,0.15559
20.2154,0.15699
20.2204,0.15686
20.2254,0.15765
20.2304,0.15887
20.2354,0.16016
20.2404,0.16076
20.2454,0.16036
20.2504,0.16032
20.2554,0.1591
20.2604,0.15985
20.2654,0.15958
20.2704,0.15983
20.2754,0.15906
20.2804,0.15847
20.2854,0.15764
20.2904,0.15654
20.2954,0.15551
20.3004,0.15465
20.3054,0.15354
20.3104,0.15394
20.3154,0.15532
20.3204,0.15639
20.3254,0.1557
20.3304,0.15643
20.3354,0.15729
20.3404,0.15974
20.3454,0.16135
20.3504,0.16102
20.3554,0.16133
20.3604,0.16088
20.3654,0.16165
20.3704,0.16111
20.3754,0.15962
20.3804,0.15911
20.3854,0.15805
20.3904,0.15839
20.3954,0.15768
20.4004,0.15717
20.4054,0.1583
20.4104,0.15824
20.4154,0.1594
20.4204,0.15769
20.4254,0.15672
20.4304,0.1569
20.4354,0.15595
20.4404,0.15589
20.4454,0.15558
20.4504,0.15576
20.4554,0.15545
20.4604,0.15458
20.4654,0.1549
20.4704,0.15501
20.4754,0.15556
20.4804,0.15687
20.4854,0.1571
20.4904,0.15904
20.4954,0.15879
20.5004,0.15824
20.5054,0.15703
20.5104,0.15653
20.5154,0.15676
20.5204,0.15696
20.5254,0.15601
20.5304,0.15787
20.5354,0.1574
20.5404,0.15711
20.5454,0.15492
20.5504,0.15604
20.5554,0.15562
20.5604,0.15535
20.5654,0.15669
20.5704,0.15634
20.5754,0.15593
20.5804,0.15777
20.5854,0.15749
20.5904,0.15814
20.5954,0.15812
20.6004,0.15994
20.6054,0.15905
20.6104,0.15992
20.6154,0.16123
20.6204,0.16147
20.6254,0.16234
20.6304,0.16155
20.6354,0.16127
20.6404,0.1611
20.6454,0.16132
20.6504,0.16198
20.6554,0.16109
20.6604,0.16067
20.6654,0.16109
20.6704,0.16093
20.6754,0.15955
20.6804,0.15989
20.6854,0.16229
20.6904,0.16243
20.6954,0.16329
20.7004,0.1628
20.7054,0.16229
20.7104,0.16311
20.7154,0.16429
20.7204,0.16401
20.7254,0.16318
20.7304,0.16306
20.7354,0.16152
20.7404,0.16062
20.7454,0.15966
20.7504,0.15862
20.7554,0.157
20.7604,0.15627
20.7654,0.15562
20.7704,0.15463
20.7754,0.15409
20.7804,0.15469
20.7854,0.15543
20.7904,0.1558
20.7954,0.15585
20.8004,0.15611
20.8054,0.15506
20.8104,0.15654
20.8154,0.15782
20.8204,0.1585
20.8254,0.1595
20.8304,0.15893
20.8354,0.15809
20.8404,0.15739
20.8454,0.15786
20.8504,0.15874
20.8554,0.15866
20.8604,0.15823
20.8654,0.1585
20.8704,0.15905
20.8754,0.15885
20.8804,0.15806
20.8854,0.15906
20.8904,0.15979
20.8954,0.16078
20.9004,0.16033
20.9054,0.15867
20.9104,0.15841
20.9154,0.15928
20.9204,0.15827
20.9254,0.15757
20.9304,0.15873
20.9354,0.15851
20.9404,0.15822
20.9454,0.1581
20.9504,0.15771
20.9554,0.1586
20.9604,0.15908
20.9654,0.16071
20.9704,0.16057
20.9754,0.15995
20.9804,0.15918
20.9854,0.15806
20.9904,0.15904
20.9954,0.15893
21.0004,0.15873
21.0054,0.15761
21.0104,0.15771
21.0154,0.15846
21.0204,0.15883
21.0254,0.15961
21.0304,0.16016
21.0354,0.16035
21.0404,0.1597
21.0454,0.15994
21.0504,0.16002
21.0554,0.15829
21.0604,0.15839
21.0654,0.15897
21.0704,0.15791
21.0754,0.15582
21.0804,0.15657
21.0854,0.15696
21.0904,0.15781
21.0954,0.1582
21.1004,0.15677
21.1054,0.15584
21.1104,0.1576
21.1154,0.15907
21.1204,0.15766
21.1254,0.15785
21.1304,0.15841
21.1354,0.15621
21.1404,0.15659
21.1454,0.15694
21.1504,0.15726
21.1554,0.1572
21.1604,0.1582
21.1654,0.15919
21.1704,0.15914
21.1754,0.15971
21.1804,0.16068
21.1854,0.16156
21.1904,0.16234
21.1954,0.1613
21.2004,0.16166
21.2054,0.1605
21.2104,0.16183
21.2154,0.16226
21.2204,0.16184
21.2254,0.16248
21.2304,0.1628
21.2354,0.1622
21.2404,0.16022
21.2454,0.1601
21.2504,0.16017
21.2554,0.15814
21.2604,0.15801
21.2654,0.15749
21.2704,0.15591
21.2754,0.15458
21.2804,0.15493
21.2854,0.1549
21.2904,0.15541
21.2954,0.15655
21.3004,0.15533
21.3054,0.15452
21.3104,0.15494
21.3154,0.15509
21.3204,0.15563
21.3254,0.15683
21.3304,0.15806
21.3354,0.15652
21.3404,0.1564
21.3454,0.15691
21.3504,0.15688
21.3554,0.1576
21.3604,0.15722
21.3654,0.15836
21.3704,0.1599
21.3754,0.15978
21.3804,0.15999
21.3854,0.1597
21.3904,0.16003
21.3954,0.16004
21.4004,0.15846
21.4054,0.15749
21.4104,0.15746
21.4154,0.15965
21.4204,0.15831
21.4254,0.15684
21.4304,0.1559
21.4354,0.15602
21.4404,0.15693
21.4454,0.15751
21.4504,0.15774
21.4554,0.1566
21.4604,0.15669
21.4654,0.15723
21.4704,0.15632
21.4754,0.15626
21.4804,0.15577
21.4854,0.15632
21.4904,0.15736
21.4954,0.15673
21.5004,0.15573
21.5054,0.15437
21.5104,0.15489
21.5154,0.15546
21.5204,0.15595
21.5254,0.15579
21.5304,0.15645
21.5354,0.15766
21.5404,0.15707
21.5454,0.15411
21.5504,0.15331
21.5554,0.15408
21.5604,0.15493
21.5654,0.15633
21.5704,0.15677
21.5754,0.15682
21.5804,0.15823
21.5854,0.15911
21.5904,0.15921
21.5954,0.15935
21.6004,0.1602
21.6054,0.15976
21.6104,0.15882
21.6154,0.15941
21.6204,0.15866
21.6254,0.15648
21.6304,0.15515
21.6354,0.15458
21.6404,0.1544
21.6454,0.15459
21.6504,0.15535
21.6554,0.15543
21.6604,0.15587
21.6654,0.15638
21.6704,0.15559
21.6754,0.15536
21.6804,0.15837
21.6854,0.16032
21.6904,0.15912
21.6954,0.15755
21.7004,0.15624
21.7054,0.1558
21.7104,0.15717
21.7154,0.15723
21.7204,0.15657
21.7254,0.15662
21.7304,0.15713
21.7354,0.15705
21.7404,0.15577
21.7454,0.15716
21.7504,0.15875
21.7554,0.15827
21.7604,0.15762
21.7654,0.15742
21.7704,0.15765
21.7754,0.15752
21.7804,0.1577
21.7854,0.15803
21.7904,0.15676
21.7954,0.15799
21.8004,0.15676
21.8054,0.15471
21.8104,0.15663
21.8154,0.15814
21.8204,0.15775
21.8254,0.15834
21.8304,0.15973
21.8354,0.16088
21.8404,0.16092
21.8454,0.15997
21.8504,0.15855
21.8554,0.15917
21.8604,0.16057
21.8654,0.1603
21.8704,0.15885
21.8754,0.1586
21.8804,0.1597
21.8854,0.15862
21.8904,0.15797
21.8954,0.15776
21.9004,0.15875
21.9054,0.15872
21.9104,0.15827
21.9154,0.158
21.9204,0.15686
21.9254,0.15768
21.9304,0.1576
21.9354,0.15679
21.9404,0.15633
21.9454,0.15564
21.9504,0.15532
21.9554,0.15473
21.9604,0.15401
21.9654,0.15454
21.9704,0.15559
21.9754,0.15614
21.9804,0.15719
21.9854,0.15696
21.9904,0.15669
21.9954,0.15753
22.0004,0.15677
22.0054,0.15688
22.0104,0.15848
22.0154,0.15944
22.0204,0.15954
22.0254,0.15928
22.0304,0.16044
22.0354,0.15932
22.0404,0.15982
22.0454,0.15995
22.0504,0.15989
22.0554,0.16033
22.0604,0.15953
22.0654,0.15915
22.0704,0.15833
22.0754,0.15834
22.0804,0.15942
22.0854,0.15829
22.0904,0.15778
22.0954,0.1583
22.1004,0.15805
22.1054,0.15813
22.1104,0.15908
22.1154,0.15907
22.1204,0.15813
22.1254,0.15937
22.1304,0.15957
22.1354,0.15723
22.1404,0.15802
22.1454,0.15922
22.1504,0.15915
22.1554,0.15905
22.1604,0.15797
22.1654,0.15712
22.1704,0.15819
22.1754,0.15855
22.1804,0.15767
22.1854,0.15725
22.1904,0.15736
22.1954,0.15658
22.2004,0.15616
22.2054,0.15692
22.2104,0.1569
22.2154,0.15865
22.2204,0.15862
22.2254,0.15811
22.2304,0.15871
22.2354,0.1593
22.2404,0.15945
22.2454,0.16023
22.2504,0.16157
22.2554,0.16111
22.2604,0.15966
22.2654,0.15944
22.2704,0.15781
22.2754,0.15755
22.2804,0.15846
22.2854,0.15794
22.2904,0.15706
22.2954,0.15654
22.3004,0.15585
22.3054,0.1542
22.3104,0.15482
22.3154,0.15553
22.3204,0.1551
22.3254,0.15555
22.3304,0.15588
22.3354,0.15494
22.3404,0.15471
22.3454,0.15609
22.3504,0.15738
22.3554,0.15706
22.3604,0.15691
22.3654,0.15695
22.3704,0.15687
22.3754,0.1573
22.3804,0.15738
22.3854,0.15785
22.3904,0.15859
22.3954,0.15985
22.4004,0.15976
22.4054,0.15917
22.4104,0.15981
22.4154,0.1609
22.4204,0.16086
22.4254,0.16088
22.4304,0.16128
22.4354,0.16073
22.4404,0.16091
22.4454,0.16067
22.4504,0.16046
22.4554,0.15971
22.4604,0.15982
22.4654,0.16207
22.4704,0.1633
22.4754,0.16359
22.4804,0.16422
22.4854,0.16506
22.4904,0.1678
22.4954,0.16988
22.5004,0.17156
22.5054,0.17083
22.5104,0.17273
22.5154,0.17512
22.5204,0.17508
22.5254,0.17576
22.5304,0.17745
22.5354,0.17921
22.5404,0.1808
22.5454,0.18137
22.5504,0.18055
22.5554,0.18033
22.5604,0.18203
22.5654,0.18364
22.5704,0.18341
22.5754,0.1837
22.5804,0.18292
22.5854,0.18349
22.5904,0.18361
22.5954,0.18422
22.6004,0.18376
22.6054,0.18416
22.6104,0.18391
22.6154,0.18345
22.6204,0.18107
22.6254,0.17944
22.6304,0.17903
22.6354,0.17898
22.6404,0.17749
22.6454,0.17621
22.6504,0.17377
22.6554,0.17227
22.6604,0.17049
22.6654,0.17049
22.6704,0.17002
22.6754,0.16947
22.6804,0.16887
22.6854,0.16828
22.6904,0.16866
22.6954,0.16734
22.7004,0.16547
22.7054,0.16366
22.7104,0.16245
22.7154,0.16297
22.7204,0.16102
22.7254,0.15927
22.7304,0.15899
22.7354,0.15902
22.7404,0.15786
22.7454,0.15648
22.7504,0.15715
22.7554,0.15752
22.7604,0.15792
22.7654,0.15891
22.7704,0.15739
22.7754,0.1576
22.7804,0.15832
22.7854,0.15781
22.7904,0.15905
22.7954,0.16037
22.8004,0.15911
22.8054,0.15693
22.8104,0.15616
22.8154,0.15598
22.8204,0.15606
22.8254,0.15778
22.8304,0.15819
22.8354,0.15889
22.8404,0.15872
22.8454,0.15646
22.8504,0.15472
22.8554,0.15455
22.8604,0.15634
22.8654,0.15762
22.8704,0.15829
22.8754,0.15744
22.8804,0.15779
22.8854,0.15691
22.8904,0.15625
22.8954,0.15658
22.9004,0.1564
22.9054,0.15573
22.9104,0.15666
22.9154,0.15623
22.9204,0.15503
22.9254,0.15484
22.9304,0.15575
22.9354,0.15443
22.9404,0.15539
22.9454,0.15479
22.9504,0.15456
22.9554,0.15606
22.9604,0.15677
22.9654,0.15697
22.9704,0.15675
22.9754,0.15638
22.9804,0.15508
22.9854,0.15419
22.9904,0.15485
22.9954,0.15493
23.0004,0.15627
23.0054,0.15628
23.0104,0.15587
23.0154,0.15589
23.0204,0.15632
23.0254,0.15754
23.0304,0.15794
23.0354,0.15931
23.0404,0.16056
23.0454,0.16018
23.0504,0.16061
23.0554,0.15956
23.0604,0.15955
23.0654,0.16022
23.0704,0.16185
23.0754,0.162
23.0804,0.16261
23.0854,0.16343
23.0904,0.16416
23.0954,0.16541
23.1004,0.16626
23.1054,0.1673
23.1104,0.17018
23.1154,0.17378
23.1204,0.17521
23.1254,0.17638
23.1304,0.17835
23.1354,0.18035
23.1404,0.18319
23.1454,0.18588
23.1504,0.18818
23.1554,0.19143
23.1604,0.19388
23.1654,0.19688
23.1704,0.20064
23.1754,0.20499
23.1804,0.21045
23.1854,0.21681
23.1904,0.22244
23.1954,0.23039
23.2004,0.23809
23.2054,0.24782
23.2104,0.25809
23.2154,0.26992
23.2204,0.28301
23.2254,0.29655
23.2304,0.31423
23.2354,0.33118
23.2404,0.34976
23.2454,0.3691
23.2504,0.38902
23.2554,0.40895
23.2604,0.42818
23.2654,0.44857
23.2704,0.46976
23.2754,0.48712
23.2804,0.50439
23.2854,0.51841
23.2904,0.53176
23.2954,0.54194
23.3004,0.54862
23.3054,0.55067
23.3104,0.55272
23.3154,0.55175
23.3204,0.54527
23.3254,0.53558
23.3304,0.52754
23.3354,0.51616
23.3404,0.50089
23.3454,0.48466
23.3504,0.46827
23.3554,0.45235
23.3604,0.43723
23.3654,0.42202
23.3704,0.40555
23.3754,0.39236
23.3804,0.37932
23.3854,0.36655
23.3904,0.35439
23.3954,0.34368
23.4004,0.33343
23.4054,0.32423
23.4104,0.31676
23.4154,0.31
23.4204,0.30296
23.4254,0.29944
23.4304,0.29667
23.4354,0.29435
23.4404,0.29322
23.4454,0.29311
23.4504,0.29422
23.4554,0.29436
23.4604,0.2952
23.4654,0.29759
23.4704,0.30125
23.4754,0.30551
23.4804,0.31013
23.4854,0.31497
23.4904,0.32
23.4954,0.32441
23.5004,0.329
23.5054,0.33568
23.5104,0.34462
23.5154,0.35277
23.5204,0.36051
23.5254,0.36865
23.5304,0.3765
23.5354,0.38381
23.5404,0.39189
23.5454,0.40067
23.5504,0.40935
23.5554,0.41668
23.5604,0.42313
23.5654,0.43074
23.5704,0.43646
23.5754,0.44028
23.5804,0.44435
23.5854,0.44866
23.5904,0.44959
23.5954,0.4487
23.6004,0.44594
23.6054,0.44007
23.6104,0.43601
23.6154,0.431
23.6204,0.42224
23.6254,0.41319
23.6304,0.40368
23.6354,0.39109
23.6404,0.37844
23.6454,0.36527
23.6504,0.35261
23.6554,0.33919
23.6604,0.3271
23.6654,0.31482
23.6704,0.30143
23.6754,0.28777
23.6804,0.27801
23.6854,0.26957
23.6904,0.26132
23.6954,0.25291
23.7004,0.24638
23.7054,0.23811
23.7104,0.23251
23.7154,0.22678
23.7204,0.2197
23.7254,0.21472
23.7304,0.212
23.7354,0.20685
23.7404,0.20236
23.7454,0.19798
23.7504,0.19451
23.7554,0.19037
23.7604,0.18775
23.7654,0.1839
23.7704,0.18239
23.7754,0.18093
23.7804,0.17946
23.7854,0.17759
23.7904,0.17633
23.7954,0.17484
23.8004,0.17403
23.8054,0.1715
23.8104,0.17183
23.8154,0.17139
23.8204,0.17227
23.8254,0.1705
23.8304,0.17063
23.8354,0.16827
23.8404,0.16636
23.8454,0.16508
23.8504,0.16353
23.8554,0.16146
23.8604,0.16068
23.8654,0.15955
23.8704,0.15963
23.8754,0.15725
23.8804,0.15754
23.8854,0.15615
23.8904,0.15741
23.8954,0.15743
23.9004,0.15671
23.9054,0.15524
23.9104,0.15685
23.9154,0.15748
23.9204,0.15676
23.9254,0.15554
23.9304,0.15507
23.9354,0.15421
23.9404,0.1547
23.9454,0.15533
23.9504,0.15567
23.9554,0.15518
23.9604,0.15634
23.9654,0.15494
23.9704,0.1551
23.9754,0.15496
23.9804,0.15564
23.9854,0.15752
23.9904,0.15833
23.9954,0.15793
24.0004,0.15758
24.0054,0.15782
24.0104,0.15899
24.0154,0.15938
24.0204,0.16043
24.0254,0.16061
24.0304,0.16065
24.0354,0.16084
24.0404,0.15926
24.0454,0.15812
24.0504,0.15816
24.0554,0.15756
24.0604,0.15754
24.0654,0.15864
24.0704,0.15817
24.0754,0.15731
24.0804,0.15721
24.0854,0.15809
24.0904,0.15803
24.0954,0.15906
24.1004,0.15971
24.1054,0.16043
24.1104,0.16064
24.1154,0.16049
24.1204,0.15941
24.1254,0.15955
24.1304,0.16085
24.1354,0.16147
24.1404,0.16207
24.1454,0.16232
24.1504,0.16331
24.1554,0.16354
24.1604,0.16258
24.1654,0.16336
24.1704,0.16366
24.1754,0.16278
24.1804,0.16331
24.1854,0.16276
24.1904,0.16124
24.1954,0.16055
24.2004,0.15978
24.2054,0.15832
24.2104,0.15861
24.2154,0.15879
24.2204,0.15752
24.2254,0.15733
24.2304,0.15732
24.2354,0.15656
24.2404,0.15678
24.2454,0.15737
24.2504,0.15601
24.2554,0.15591
24.2604,0.15624
24.2654,0.15693
24.2704,0.15839
24.2754,0.15917
24.2804,0.16027
24.2854,0.16121
24.2904,0.1616
24.2954,0.16044
24.3004,0.15995
24.3054,0.15996
24.3104,0.15981
24.3154,0.16105
24.3204,0.16082
24.3254,0.15966
24.3304,0.15927
24.3354,0.15816
24.3404,0.1571
24.3454,0.15614
24.3504,0.15682
24.3554,0.15629
24.3604,0.15552
24.3654,0.15595
24.3704,0.15545
24.3754,0.1547
24.3804,0.15451
24.3854,0.15491
24.3904,0.15458
24.3954,0.156
24.4004,0.15724
24.4054,0.15707
24.4104,0.15737
24.4154,0.16064
24.4204,0.16185
24.4254,0.16198
24.4304,0.1617
24.4354,0.16105
24.4404,0.16122
24.4454,0.16227
24.4504,0.16144
24.4554,0.16102
24.4604,0.1613
24.4654,0.16376
24.4704,0.16272
24.4754,0.16028
24.4804,0.15884
24.4854,0.158
24.4904,0.15907
24.4954,0.15834
24.5004,0.15707
24.5054,0.15782
24.5104,0.15868
24.5154,0.15864
24.5204,0.15718
24.5254,0.15637
24.5304,0.15749
24.5354,0.15822
24.5404,0.15861
24.5454,0.1579
24.5504,0.15724
24.5554,0.15755
24.5604,0.15668
24.5654,0.15596
24.5704,0.15536
24.5754,0.15421
24.5804,0.15448
24.5854,0.15482
24.5904,0.15583
24.5954,0.15688
24.6004,0.15578
24.6054,0.15654
24.6104,0.15688
24.6154,0.15704
24.6204,0.15703
24.6254,0.15798
24.6304,0.15805
24.6354,0.15677
24.6404,0.15561
24.6454,0.15568
24.6504,0.15497
24.6554,0.1551
24.6604,0.15427
24.6654,0.15554
24.6704,0.15647
24.6754,0.15591
24.6804,0.15534
24.6854,0.15549
24.6904,0.1559
24.6954,0.15734
24.7004,0.15688
24.7054,0.15768
24.7104,0.15929
24.7154,0.15975
24.7204,0.15753
24.7254,0.15728
24.7304,0.15805
24.7354,0.15912
24.7404,0.15981
24.7454,0.16164
24.7504,0.16178
24.7554,0.16029
24.7604,0.15987
24.7654,0.15981
24.7704,0.15961
24.7754,0.159
24.7804,0.1586
24.7854,0.15875
24.7904,0.15817
24.7954,0.15775
24.8004,0.15581
24.8054,0.1547
24.8104,0.1558
24.8154,0.15538
24.8204,0.15536
24.8254,0.15551
24.8304,0.15601
24.8354,0.15553
24.8404,0.15484
24.8454,0.15462
24.8504,0.15478
24.8554,0.15563
24.8604,0.15594
24.8654,0.15687
24.8704,0.15821
24.8754,0.15734
24.8804,0.15773
24.8854,0.15863
24.8904,0.15977
24.8954,0.15969
24.9004,0.15975
24.9054,0.16101
24.9104,0.16054
24.9154,0.16012
24.9204,0.15745
24.9254,0.15612
24.9304,0.15734
24.9354,0.15736
24.9404,0.15773
24.9454,0.15648
24.9504,0.15769
24.9554,0.15773
24.9604,0.15638
24.9654,0.15696
24.9704,0.15766
24.9754,0.15781
24.9804,0.15903
24.9854,0.15898
24.9904,0.15882
24.9954,0.1581
25.0004,0.15862
25.0054,0.15753
25.0104,0.15724
25.0154,0.15801
25.0204,0.15806
25.0254,0.15842
25.0304,0.16101
25.0354,0.16008
25.0404,0.16004
25.0454,0.16112
25.0504,0.1625
25.0554,0.1627
25.0604,0.16218
25.0654,0.162
25.0704,0.16077
25.0754,0.15978
25.0804,0.15919
25.0854,0.15786
25.0904,0.1578
25.0954,0.15707
25.1004,0.15633
25.1054,0.15476
25.1104,0.15407
25.1154,0.15514
25.1204,0.15442
25.1254,0.15526
25.1304,0.15617
25.1354,0.15657
25.1404,0.15718
25.1454,0.15767
25.1504,0.15734
25.1554,0.15561
25.1604,0.15607
25.1654,0.1575
25.1704,0.15754
25.1754,0.15827
25.1804,0.1578
25.1854,0.15772
25.1904,0.15761
25.1954,0.15828
25.2004,0.15907
25.2054,0.15966
25.2104,0.16058
25.2154,0.16007
25.2204,0.15948
25.2254,0.15865
25.2304,0.15842
25.2354,0.16
25.2404,0.16008
25.2454,0.15971
25.2504,0.15862
25.2554,0.15631
25.2604,0.15495
25.2654,0.15523
25.2704,0.15547
25.2754,0.15497
25.2804,0.15638
25.2854,0.15744
25.2904,0.15531
25.2954,0.15515
25.3004,0.15629
25.3054,0.15682
25.3104,0.15838
25.3154,0.15989
25.3204,0.15999
25.3254,0.15963
25.3304,0.15923
25.3354,0.15824
25.3404,0.15734
25.3454,0.15816
25.3504,0.1591
25.3554,0.15724
25.3604,0.15595
25.3654,0.15457
25.3704,0.15476
25.3754,0.15348
25.3804,0.15487
25.3854,0.15545
25.3904,0.15601
25.3954,0.15694
25.4004,0.15733
25.4054,0.15597
25.4104,0.15698
25.4154,0.15778
25.4204,0.15868
25.4254,0.15806
25.4304,0.15898
25.4354,0.15778
25.4404,0.15697
25.4454,0.15689
25.4504,0.15707
25.4554,0.15612
25.4604,0.15653
25.4654,0.15698
25.4704,0.15654
25.4754,0.15637
25.4804,0.15739
25.4854,0.15811
25.4904,0.15952
25.4954,0.16145
25.5004,0.16223
25.5054,0.16048
25.5104,0.16145
25.5154,0.1619
25.5204,0.16018
25.5254,0.16013
25.5304,0.16038
25.5354,0.16006
25.5404,0.1603
25.5454,0.15857
25.5504,0.15597
25.5554,0.15322
25.5604,0.1539
25.5654,0.15414
25.5704,0.1545
25.5754,0.15539
25.5804,0.15612
25.5854,0.15692
25.5904,0.15803
25.5954,0.15843
25.6004,0.15978
25.6054,0.16008
25.6104,0.1606
25.6154,0.16027
25.6204,0.15885
25.6254,0.15724
25.6304,0.15744
25.6354,0.15734
25.6404,0.15672
25.6454,0.15557
25.6504,0.15517
25.6554,0.15464
25.6604,0.15461
25.6654,0.15563
25.6704,0.15601
25.6754,0.15746
25.6804,0.15661
25.6854,0.15646
25.6904,0.15655
25.6954,0.15604
25.7004,0.15492
25.7054,0.15467
25.7104,0.15465
25.7154,0.15599
25.7204,0.15746
25.7254,0.15767
25.7304,0.15761
25.7354,0.15869
25.7404,0.15822
25.7454,0.1571
25.7504,0.15676
25.7554,0.15707
25.7604,0.15618
25.7654,0.15598
25.7704,0.15602
25.7754,0.15389
25.7804,0.15557
25.7854,0.15661
25.7904,0.15761
25.7954,0.15892
25.8004,0.15946
25.8054,0.15923
25.8104,0.15833
25.8154,0.15902
25.8204,0.15842
25.8254,0.15753
25.8304,0.15813
25.8354,0.15695
25.8404,0.15678
25.8454,0.15652
25.8504,0.15551
25.8554,0.15615
25.8604,0.15745
25.8654,0.15875
25.8704,0.15855
25.8754,0.15922
25.8804,0.16021
25.8854,0.15985
25.8904,0.15965
25.8954,0.15806
25.9004,0.15724
25.9054,0.15804
25.9104,0.15841
25.9154,0.15799
25.9204,0.1578
25.9254,0.15701
25.9304,0.15735
25.9354,0.15668
25.9404,0.15626
25.9454,0.15598
25.9504,0.15632
25.9554,0.15639
25.9604,0.15561
25.9654,0.15439
25.9704,0.15446
25.9754,0.15448
25.9804,0.15583
25.9854,0.15592
25.9904,0.15646
25.9954,0.15642
26.0004,0.1561
26.0054,0.15669
26.0104,0.15725
26.0154,0.15685
26.0204,0.15765
26.0254,0.15859
26.0304,0.15881
26.0354,0.15804
26.0404,0.15733
26.0454,0.15628
26.0504,0.15717
26.0554,0.15766
26.0604,0.15662
26.0654,0.15716
26.0704,0.15809
26.0754,0.15884
26.0804,0.15858
26.0854,0.15859
26.0904,0.15817
26.0954,0.1592
26.1004,0.1603
26.1054,0.15977
26.1104,0.15898
26.1154,0.15882
26.1204,0.15961
26.1254,0.16005
26.1304,0.15953
26.1354,0.15843
26.1404,0.15836
26.1454,0.15911
26.1504,0.15953
26.1554,0.15943
26.1604,0.16017
26.1654,0.16041
26.1704,0.16133
26.1754,0.15997
26.1804,0.16067
26.1854,0.16019
26.1904,0.16043
26.1954,0.16075
26.2004,0.16032
26.2054,0.15911
26.2104,0.15897
26.2154,0.15848
26.2204,0.15827
26.2254,0.15746
26.2304,0.15784
26.2354,0.15744
26.2404,0.15746
26.2454,0.15738
26.2504,0.15739
26.2554,0.15712
26.2604,0.15666
26.2654,0.15649
26.2704,0.15682
26.2754,0.15622
26.2804,0.15692
26.2854,0.15596
26.2904,0.15453
26.2954,0.15439
26.3004,0.15467
26.3054,0.15457
26.3104,0.15577
26.3154,0.15641
26.3204,0.15677
26.3254,0.15635
26.3304,0.15743
26.3354,0.15685
26.3404,0.15806
26.3454,0.15891
26.3504,0.15974
26.3554,0.15947
26.3604,0.15915
26.3654,0.15789
26.3704,0.15779
26.3754,0.1584
26.3804,0.1593
26.3854,0.15875
26.3904,0.15992
26.3954,0.1604
26.4004,0.16041
26.4054,0.16069
26.4104,0.16189
26.4154,0.16303
26.4204,0.16384
26.4254,0.16388
26.4304,0.16311
26.4354,0.1618
26.4404,0.16312
26.4454,0.16377
26.4504,0.164
26.4554,0.16334
26.4604,0.16213
26.4654,0.16157
26.4704,0.16044
26.4754,0.15983
26.4804,0.1602
26.4854,0.15983
26.4904,0.16042
26.4954,0.16017
26.5004,0.15803
26.5054,0.15545
26.5104,0.15616
26.5154,0.15528
26.5204,0.15379
26.5254,0.1539
26.5304,0.15479
26.5354,0.15535
26.5404,0.15665
26.5454,0.15705
26.5504,0.15677
26.5554,0.1571
26.5604,0.15787
26.5654,0.15708
26.5704,0.15796
26.5754,0.15829
26.5804,0.15778
26.5854,0.15832
26.5904,0.1588
26.5954,0.15878
26.6004,0.15894
26.6054,0.15835
26.6104,0.15956
26.6154,0.15997
26.6204,0.1591
26.6254,0.1595
26.6304,0.16054
26.6354,0.16149
26.6404,0.16079
26.6454,0.15933
26.6504,0.15811
26.6554,0.15763
26.6604,0.1578
26.6654,0.15784
26.6704,0.15843
26.6754,0.15936
26.6804,0.16037
26.6854,0.16025
26.6904,0.1604
26.6954,0.1604
26.7004,0.16067
26.7054,0.16105
26.7104,0.16117
26.7154,0.16074
26.7204,0.15956
26.7254,0.15856
26.7304,0.16042
26.7354,0.15998
26.7404,0.16007
26.7454,0.16048
26.7504,0.16041
26.7554,0.16033
26.7604,0.15941
26.7654,0.15867
26.7704,0.15994
26.7754,0.15997
26.7804,0.16044
26.7854,0.15921
26.7904,0.15955
26.7954,0.16032
26.8004,0.15927
26.8054,0.15912
26.8104,0.1577
26.8154,0.15839
26.8204,0.15861
26.8254,0.15835
26.8304,0.15841
26.8354,0.15935
26.8404,0.15946
26.8454,0.15973
26.8504,0.15979
26.8554,0.15845
26.8604,0.15829
26.8654,0.16
26.8704,0.16026
26.8754,0.15911
26.8804,0.15966
26.8854,0.16014
26.8904,0.15901
26.8954,0.15934
26.9004,0.15793
26.9054,0.15594
26.9104,0.15674
26.9154,0.15729
26.9204,0.15728
26.9254,0.15584
26.9304,0.15744
26.9354,0.15597
26.9404,0.15521
26.9454,0.15635
26.9504,0.15665
26.9554,0.15726
26.9604,0.15815
26.9654,0.15878
26.9704,0.15823
26.9754,0.15743
26.9804,0.1588
26.9854,0.15929
26.9904,0.16045
26.9954,0.16064
27.0004,0.15908
27.0054,0.15754
27.0104,0.15669
27.0154,0.15724
27.0204,0.15639
27.0254,0.15656
27.0304,0.15667
27.0354,0.15548
27.0404,0.15473
27.0454,0.15417
27.0504,0.15442
27.0554,0.15522
27.0604,0.15575
27.0654,0.15635
27.0704,0.1565
27.0754,0.15745
27.0804,0.15833
27.0854,0.15848
27.0904,0.16009
27.0954,0.16176
27.1004,0.16241
27.1054,0.16212
27.1104,0.16193
27.1154,0.16348
27.1204,0.16323
27.1254,0.16178
27.1304,0.16162
27.1354,0.16138
27.1404,0.16264
27.1454,0.16246
27.1504,0.16096
27.1554,0.16131
27.1604,0.16128
27.1654,0.16083
27.1704,0.15835
27.1754,0.15795
27.1804,0.15964
27.1854,0.16059
27.1904,0.16031
27.1954,0.15883
27.2004,0.15929
27.2054,0.15945
27.2104,0.15875
27.2154,0.1585
27.2204,0.15894
27.2254,0.15947
27.2304,0.15934
27.2354,0.15797
27.2404,0.15758
27.2454,0.15748
27.2504,0.15772
27.2554,0.15641
27.2604,0.15577
27.2654,0.15525
27.2704,0.1571
27.2754,0.15808
27.2804,0.1592
27.2854,0.16086
27.2904,0.16118
27.2954,0.1606
27.3004,0.16096
27.3054,0.16069
27.3104,0.16109
27.3154,0.16132
27.3204,0.16061
27.3254,0.15943
27.3304,0.15728
27.3354,0.1563
27.3404,0.15504
27.3454,0.15589
27.3504,0.15623
27.3554,0.15531
27.3604,0.15472
27.3654,0.15423
27.3704,0.15401
27.3754,0.15497
27.3804,0.15641
27.3854,0.15861
27.3904,0.15961
27.3954,0.16096
27.4004,0.16025
27.4054,0.15927
27.4104,0.15963
27.4154,0.16185
27.4204,0.16302
27.4254,0.16394
27.4304,0.1647
27.4354,0.16201
27.4404,0.16146
27.4454,0.16095
27.4504,0.16052
27.4554,0.16176
27.4604,0.16326
27.4654,0.16468
27.4704,0.16254
27.4754,0.16118
27.4804,0.16067
27.4854,0.15987
27.4904,0.16176
27.4954,0.16182
27.5004,0.16153
27.5054,0.1612
27.5104,0.1591
27.5154,0.15742
27.5204,0.15574
27.5254,0.1554
27.5304,0.15683
27.5354,0.15666
27.5404,0.15638
27.5454,0.15592
27.5504,0.15599
27.5554,0.15517
27.5604,0.1537
27.5654,0.15511
27.5704,0.15559
27.5754,0.15463
27.5804,0.15653
27.5854,0.15655
27.5904,0.15721
27.5954,0.1583
27.6004,0.15849
27.6054,0.15777
27.6104,0.15796
27.6154,0.1589
27.6204,0.15821
27.6254,0.15852
27.6304,0.15928
27.6354,0.15952
27.6404,0.15971
27.6454,0.15952
27.6504,0.15872
27.6554,0.15887
27.6604,0.15957
27.6654,0.15968
27.6704,0.16005
27.6754,0.16065
27.6804,0.16148
27.6854,0.16256
27.6904,0.16179
27.6954,0.1622
27.7004,0.16244
27.7054,0.16263
27.7104,0.16241
27.7154,0.16198
27.7204,0.16204
27.7254,0.16112
27.7304,0.16061
27.7354,0.16084
27.7404,0.16186
27.7454,0.16225
27.7504,0.16133
27.7554,0.16002
27.7604,0.1591
27.7654,0.15923
27.7704,0.15919
27.7754,0.15984
27.7804,0.16042
27.7854,0.16093
27.7904,0.16068
27.7954,0.15978
27.8004,0.15827
27.8054,0.15736
27.8104,0.15906
27.8154,0.161
27.8204,0.16078
27.8254,0.16049
27.8304,0.15981
27.8354,0.16024
27.8404,0.16012
27.8454,0.15944
27.8504,0.15955
27.8554,0.16028
27.8604,0.15958
27.8654,0.15915
27.8704,0.15778
27.8754,0.15703
27.8804,0.15759
27.8854,0.15848
27.8904,0.15901
27.8954,0.15835
27.9004,0.15793
27.9054,0.15689
27.9104,0.15708
27.9154,0.15799
27.9204,0.15697
27.9254,0.15573
27.9304,0.15542
27.9354,0.15447
27.9404,0.15448
27.9454,0.15476
27.9504,0.15622
27.9554,0.15561
27.9604,0.15503
27.9654,0.15565
27.9704,0.15599
27.9754,0.15666
27.9804,0.15899
27.9854,0.15968
27.9904,0.16022
27.9954,0.16014
28.0004,0.15876
28.0054,0.1569
28.0104,0.15705
28.0154,0.15719
28.0204,0.15685
28.0254,0.15656
28.0304,0.15658
28.0354,0.1554
28.0404,0.15636
28.0454,0.15689
28.0504,0.15679
28.0554,0.15675
28.0604,0.15686
28.0654,0.15772
28.0704,0.15792
28.0754,0.15722
28.0804,0.15688
28.0854,0.15692
28.0904,0.1568
28.0954,0.15667
28.1004,0.15618
28.1054,0.15573
28.1104,0.1569
28.1154,0.15777
28.1204,0.15678
28.1254,0.15829
28.1304,0.15951
28.1354,0.16025
28.1404,0.16083
28.1454,0.16179
28.1504,0.1621
28.1554,0.16107
28.1604,0.16065
28.1654,0.15974
28.1704,0.15982
28.1754,0.16076
28.1804,0.16039
28.1854,0.15991
28.1904,0.15869
28.1954,0.15827
28.2004,0.15797
28.2054,0.15677
28.2104,0.15854
28.2154,0.15968
28.2204,0.15963
28.2254,0.16039
28.2304,0.16049
28.2354,0.16061
28.2404,0.16029
28.2454,0.16257
28.2504,0.16279
28.2554,0.16227
28.2604,0.16227
28.2654,0.16177
28.2704,0.16264
28.2754,0.16397
28.2804,0.16324
28.2854,0.16365
28.2904,0.16324
28.2954,0.16295
28.3004,0.16124
28.3054,0.16082
28.3104,0.16128
28.3154,0.16071
28.3204,0.16115
28.3254,0.15959
28.3304,0.15912
28.3354,0.15941
28.3404,0.15978
28.3454,0.16052
28.3504,0.16123
28.3554,0.16018
28.3604,0.16038
28.3654,0.16136
28.3704,0.16182
28.3754,0.16026
28.3804,0.15986
28.3854,0.15923
28.3904,0.15844
28.3954,0.15747
28.4004,0.15603
28.4054,0.15504
28.4104,0.15681
28.4154,0.15601
28.4204,0.15394
28.4254,0.15388
28.4304,0.15509
28.4354,0.15579
28.4404,0.15526
28.4454,0.15631
28.4504,0.15719
28.4554,0.1588
28.4604,0.15936
28.4654,0.15883
28.4704,0.15897
28.4754,0.16036
28.4804,0.16042
28.4854,0.15958
28.4904,0.1606
28.4954,0.16171
28.5004,0.1606
28.5054,0.15932
28.5104,0.15809
28.5154,0.15746
28.5204,0.1575
28.5254,0.15774
28.5304,0.15827
28.5354,0.15914
28.5404,0.16048
28.5454,0.15923
28.5504,0.15839
28.5554,0.15862
28.5604,0.15888
28.5654,0.15851
28.5704,0.15934
28.5754,0.1589
28.5804,0.15932
28.5854,0.15885
28.5904,0.15866
28.5954,0.15866
28.6004,0.15874
28.6054,0.15957
28.6104,0.15983
28.6154,0.15995
28.6204,0.1601
28.6254,0.16099
28.6304,0.16174
28.6354,0.16169
28.6404,0.16051
28.6454,0.16054
28.6504,0.15892
28.6554,0.1586
28.6604,0.15747
28.6654,0.15713
28.6704,0.15701
28.6754,0.15743
28.6804,0.15612
28.6854,0.15625
28.6904,0.15653
28.6954,0.15733
28.7004,0.15625
28.7054,0.15675
28.7104,0.15694
28.7154,0.15688
28.7204,0.15598
28.7254,0.15621
28.7304,0.15513
28.7354,0.15461
28.7404,0.15511
28.7454,0.15468
28.7504,0.15474
28.7554,0.15545
28.7604,0.15637
28.7654,0.15714
28.7704,0.15772
28.7754,0.15783
28.7804,0.15825
28.7854,0.1587
28.7904,0.1598
28.7954,0.15908
28.8004,0.15835
28.8054,0.15782
28.8104,0.15714
28.8154,0.15685
28.8204,0.15637
28.8254,0.15677
28.8304,0.1574
28.8354,0.15694
28.8404,0.15751
28.8454,0.15777
28.8504,0.15801
28.8554,0.15834
28.8604,0.15694
28.8654,0.15773
28.8704,0.15778
28.8754,0.15781
28.8804,0.1576
28.8854,0.15775
28.8904,0.15859
28.8954,0.15859
28.9004,0.15685
28.9054,0.15679
28.9104,0.15737
28.9154,0.15908
28.9204,0.15918
28.9254,0.15926
28.9304,0.15994
28.9354,0.15985
28.9404,0.15982
28.9454,0.15984
28.9504,0.16064
28.9554,0.16126
28.9604,0.16061
28.9654,0.16028
28.9704,0.16012
28.9754,0.16053
28.9804,0.16055
28.9854,0.16097
28.9904,0.16077
28.9954,0.16153
29.0004,0.16164
29.0054,0.15984
29.0104,0.16006
29.0154,0.16021
29.0204,0.16087
29.0254,0.16098
29.0304,0.16046
29.0354,0.16063
29.0404,0.16003
29.0454,0.1602
29.0504,0.16026
29.0554,0.15964
29.0604,0.16018
29.0654,0.16147
29.0704,0.16242
29.0754,0.16238
29.0804,0.16282
29.0854,0.1624
29.0904,0.1616
29.0954,0.16106
29.1004,0.15996
29.1054,0.15913
29.1104,0.15909
29.1154,0.15956
29.1204,0.15894
29.1254,0.15852
29.1304,0.15714
29.1354,0.1565
29.1404,0.15689
29.1454,0.1575
29.1504,0.15708
29.1554,0.15741
29.1604,0.15799
29.1654,0.15764
29.1704,0.15846
29.1754,0.15786
29.1804,0.15797
29.1854,0.15959
29.1904,0.15927
29.1954,0.15916
29.2004,0.15862
29.2054,0.1592
29.2104,0.16041
29.2154,0.16034
29.2204,0.16122
29.2254,0.16053
29.2304,0.16136
29.2354,0.16133
29.2404,0.16047
29.2454,0.1615
29.2504,0.1611
29.2554,0.16097
29.2604,0.16103
29.2654,0.16132
29.2704,0.16147
29.2754,0.16052
29.2804,0.16019
29.2854,0.15931
29.2904,0.15832
29.2954,0.15777
29.3004,0.15733
29.3054,0.15696
29.3104,0.15703
29.3154,0.15775
29.3204,0.15714
29.3254,0.15597
29.3304,0.1552
29.3354,0.15434
29.3404,0.15427
29.3454,0.15445
29.3504,0.15538
29.3554,0.15576
29.3604,0.15689
29.3654,0.15749
29.3704,0.15648
29.3754,0.15592
29.3804,0.15716
29.3854,0.1571
29.3904,0.15854
29.3954,0.1602
29.4004,0.16043
29.4054,0.15989
29.4104,0.16106
29.4154,0.1617
29.4204,0.16238
29.4254,0.16296
29.4304,0.1638
29.4354,0.16366
29.4404,0.16511
29.4454,0.1641
29.4504,0.16381
29.4554,0.1644
29.4604,0.16526
29.4654,0.1638
29.4704,0.16266
29.4754,0.16173
29.4804,0.16224
29.4854,0.16215
29.4904,0.16236
29.4954,0.16196
29.5004,0.16328
29.5054,0.16232
29.5104,0.1613
29.5154,0.15988
29.5204,0.15947
29.5254,0.15926
29.5304,0.15995
29.5354,0.15855
29.5404,0.15769
29.5454,0.15804
29.5504,0.15923
29.5554,0.15843
29.5604,0.15859
29.5654,0.16028
29.5704,0.16146
29.5754,0.16163
29.5804,0.16276
29.5854,0.16197
29.5904,0.16289
29.5954,0.1634
29.6004,0.16116
29.6054,0.1594
29.6104,0.16014
29.6154,0.16028
29.6204,0.15851
29.6254,0.15811
29.6304,0.15826
29.6354,0.15739
29.6404,0.15753
29.6454,0.15701
29.6504,0.15816
29.6554,0.1605
29.6604,0.16169
29.6654,0.16099
29.6704,0.16051
29.6754,0.16017
29.6804,0.15907
29.6854,0.15854
29.6904,0.15865
29.6954,0.15917
29.7004,0.15874
29.7054,0.15783
29.7104,0.1572
29.7154,0.15754
29.7204,0.15671
29.7254,0.15592
29.7304,0.15764
29.7354,0.15846
29.7404,0.15784
29.7454,0.1582
29.7504,0.15884
29.7554,0.15867
29.7604,0.1577
29.7654,0.15759
29.7704,0.15705
29.7754,0.15708
29.7804,0.15832
29.7854,0.15743
29.7904,0.15823
29.7954,0.15956
29.8004,0.15939
29.8054,0.15841
29.8104,0.15861
29.8154,0.1596
29.8204,0.15802
29.8254,0.15689
29.8304,0.15811
29.8354,0.15789
29.8404,0.1588
29.8454,0.15808
29.8504,0.15839
29.8554,0.15699
29.8604,0.15465
29.8654,0.15444
29.8704,0.15388
29.8754,0.15492
29.8804,0.15619
29.8854,0.15604
29.8904,0.15544
29.8954,0.1555
29.9004,0.15521
29.9054,0.15489
29.9104,0.15582
29.9154,0.15829
29.9204,0.15974
29.9254,0.15878
29.9304,0.15839
29.9354,0.15845
29.9404,0.15886
29.9454,0.15997
29.9504,0.15942
29.9554,0.15873
29.9604,0.15691
29.9654,0.15798
29.9704,0.15823
29.9754,0.15669
29.9804,0.15827
29.9854,0.16003
29.9904,0.15951
29.9954,0.1583
30.0004,0.15692
30.0054,0.15567
30.0104,0.15662
30.0154,0.15819
30.0204,0.15753
30.0254,0.15838
30.0304,0.15964
30.0354,0.15924
30.0404,0.15843
30.0454,0.15823
30.0504,0.15857
30.0554,0.15857
30.0604,0.15917
30.0654,0.15973
30.0704,0.15953
30.0754,0.1595
30.0804,0.15835
30.0854,0.15803
30.0904,0.15949
30.0954,0.15952
30.1004,0.15973
30.1054,0.15925
30.1104,0.1605
30.1154,0.16127
30.1204,0.16129
30.1254,0.16161
30.1304,0.1615
30.1354,0.16178
30.1404,0.1617
30.1454,0.16084
30.1504,0.16049
30.1554,0.15949
30.1604,0.16033
30.1654,0.16058
30.1704,0.15992
30.1754,0.15895
30.1804,0.15874
30.1854,0.15824
30.1904,0.15817
30.1954,0.15786
30.2004,0.1574
30.2054,0.15696
30.2104,0.15748
30.2154,0.15747
30.2204,0.15687
30.2254,0.15738
30.2304,0.15857
30.2354,0.15882
30.2404,0.15997
30.2454,0.16065
30.2504,0.16233
30.2554,0.1631
30.2604,0.16304
30.2654,0.16322
30.2704,0.16313
30.2754,0.16293
30.2804,0.16382
30.2854,0.1634
30.2904,0.1636
30.2954,0.16466
30.3004,0.16443
30.3054,0.16339
30.3104,0.16176
30.3154,0.16223
30.3204,0.16253
30.3254,0.16214
30.3304,0.16201
30.3354,0.1614
30.3404,0.1628
30.3454,0.16214
30.3504,0.15952
30.3554,0.15725
30.3604,0.15667
30.3654,0.15856
30.3704,0.15896
30.3754,0.15784
30.3804,0.15906
30.3854,0.15967
30.3904,0.15977
30.3954,0.15827
30.4004,0.15857
30.4054,0.15989
30.4104,0.16106
30.4154,0.16012
30.4204,0.15791
30.4254,0.15744
30.4304,0.15837
30.4354,0.15728
30.4404,0.15725
30.4454,0.15585
30.4504,0.15546
30.4554,0.15504
30.4604,0.15369
30.4654,0.15426
30.4704,0.15536
30.4754,0.15559
30.4804,0.15667
30.4854,0.15697
30.4904,0.15719
30.4954,0.15647
30.5004,0.15717
30.5054,0.15797
30.5104,0.15887
30.5154,0.16054
30.5204,0.16099
30.5254,0.16088
30.5304,0.16197
30.5354,0.16123
30.5404,0.16255
30.5454,0.16302
30.5504,0.16341
30.5554,0.16305
30.5604,0.16201
30.5654,0.16195
30.5704,0.16161
30.5754,0.16035
30.5804,0.16014
30.5854,0.16024
30.5904,0.15976
30.5954,0.15928
30.6004,0.15981
30.6054,0.1591
30.6104,0.15895
30.6154,0.15877
30.6204,0.15811
30.6254,0.15737
30.6304,0.1568
30.6354,0.15695
30.6404,0.15637
30.6454,0.15817
30.6504,0.15726
30.6554,0.15608
30.6604,0.156
30.6654,0.15753
30.6704,0.15925
30.6754,0.1601
30.6804,0.16146
30.6854,0.16333
30.6904,0.16344
30.6954,0.1645
30.7004,0.16223
30.7054,0.16275
30.7104,0.16283
30.7154,0.1643
30.7204,0.16421
30.7254,0.16394
30.7304,0.16311
30.7354,0.16255
30.7404,0.16201
30.7454,0.16214
30.7504,0.16204
30.7554,0.16299
30.7604,0.16151
30.7654,0.16109
30.7704,0.16098
30.7754,0.16027
30.7804,0.15928
30.7854,0.15895
30.7904,0.15831
30.7954,0.15733
30.8004,0.15732
30.8054,0.15656
30.8104,0.1565
30.8154,0.158
30.8204,0.15818
30.8254,0.15701
30.8304,0.15671
30.8354,0.15673
30.8404,0.15763
30.8454,0.15846
30.8504,0.15829
30.8554,0.15866
30.8604,0.15788
30.8654,0.15762
30.8704,0.15666
30.8754,0.15653
30.8804,0.15742
30.8854,0.15831
30.8904,0.15864
30.8954,0.15903
30.9004,0.1586
30.9054,0.15894
30.9104,0.15836
30.9154,0.15966
30.9204,0.15902
30.9254,0.15834
30.9304,0.15914
30.9354,0.1593
30.9404,0.159
30.9454,0.15953
30.9504,0.15865
30.9554,0.15773
30.9604,0.1573
30.9654,0.15668
30.9704,0.15634
30.9754,0.15702
30.9804,0.15781
30.9854,0.15783
30.9904,0.15768
30.9954,0.15717
31.0004,0.15569
31.0054,0.15545
31.0104,0.15621
31.0154,0.15695
31.0204,0.15691
31.0254,0.15611
31.0304,0.15701
31.0354,0.15738
31.0404,0.15717
31.0454,0.15674
31.0504,0.15695
31.0554,0.1571
31.0604,0.15601
31.0654,0.15654
31.0704,0.15748
31.0754,0.15809
31.0804,0.15823
31.0854,0.15705
31.0904,0.15558
31.0954,0.15407
31.1004,0.15347
31.1054,0.15399
31.1104,0.15585
31.1154,0.15765
31.1204,0.15673
31.1254,0.15567
31.1304,0.15583
31.1354,0.15579
31.1404,0.15609
31.1454,0.1577
31.1504,0.1603
31.1554,0.1603
31.1604,0.15907
31.1654,0.15715
31.1704,0.15668
31.1754,0.15678
31.1804,0.15744
31.1854,0.1574
31.1904,0.15845
31.1954,0.15845
31.2004,0.15866
31.2054,0.15702
31.2104,0.15765
31.2154,0.15905
31.2204,0.15792
31.2254,0.15678
31.2304,0.15744
31.2354,0.15598
31.2404,0.15534
31.2454,0.1545
31.2504,0.15503
31.2554,0.15485
31.2604,0.15456
31.2654,0.15581
31.2704,0.15508
31.2754,0.15648
31.2804,0.1575
31.2854,0.1573
31.2904,0.15785
31.2954,0.1586
31.3004,0.15865
31.3054,0.1574
31.3104,0.15709
31.3154,0.15731
31.3204,0.15615
31.3254,0.1554
31.3304,0.15576
31.3354,0.15572
31.3404,0.15584
31.3454,0.15698
31.3504,0.15784
31.3554,0.15822
31.3604,0.15806
31.3654,0.15846
31.3704,0.15918
31.3754,0.15899
31.3804,0.16073
31.3854,0.16236
31.3904,0.16369
31.3954,0.16347
31.4004,0.16329
31.4054,0.16278
31.4104,0.16379
31.4154,0.16498
31.4204,0.1646
31.4254,0.16413
31.4304,0.16456
31.4354,0.16396
31.4404,0.16247
31.4454,0.16235
31.4504,0.16197
31.4554,0.16136
31.4604,0.16131
31.4654,0.16094
31.4704,0.15986
31.4754,0.15872
31.4804,0.15922
31.4854,0.15972
31.4904,0.15897
31.4954,0.15961
31.5004,0.15919
31.5054,0.15953
31.5104,0.15925
31.5154,0.15879
31.5204,0.15875
31.5254,0.16004
31.5304,0.1616
31.5354,0.16172
31.5404,0.16243
31.5454,0.16259
31.5504,0.16217
31.5554,0.16085
31.5604,0.15908
31.5654,0.15836
31.5704,0.15754
31.5754,0.15579
31.5804,0.15512
31.5854,0.1551
31.5904,0.15531
31.5954,0.15499
31.6004,0.15532
31.6054,0.15454
31.6104,0.15707
31.6154,0.15955
31.6204,0.16071
31.6254,0.16101
31.6304,0.16192
31.6354,0.16225
31.6404,0.16271
31.6454,0.16154
31.6504,0.15989
31.6554,0.15893
31.6604,0.15885
31.6654,0.15737
31.6704,0.15657
31.6754,0.15695
31.6804,0.15756
31.6854,0.15789
31.6904,0.15763
31.6954,0.15712
31.7004,0.15797
31.7054,0.15823
31.7104,0.15862
31.7154,0.15856
31.7204,0.15849
31.7254,0.15906
31.7304,0.15897
31.7354,0.15955
31.7404,0.16017
31.7454,0.16103
31.7504,0.16094
31.7554,0.16018
31.7604,0.15975
31.7654,0.16019
31.7704,0.16087
31.7754,0.16139
31.7804,0.16171
31.7854,0.16125
31.7904,0.15967
31.7954,0.15841
31.8004,0.15674
31.8054,0.15588
31.8104,0.15595
31.8154,0.15638
31.8204,0.15528
31.8254,0.15516
31.8304,0.15566
31.8354,0.15431
31.8404,0.15392
31.8454,0.1551
31.8504,0.15665
31.8554,0.15697
31.8604,0.15742
31.8654,0.15748
31.8704,0.15743
31.8754,0.1586
31.8804,0.15886
31.8854,0.15754
31.8904,0.15769
31.8954,0.159
31.9004,0.1594
31.9054,0.15778
31.9104,0.15833
31.9154,0.15974
31.9204,0.16122
31.9254,0.16241
31.9304,0.16261
31.9354,0.16185
31.9404,0.1625
31.9454,0.16239
31.9504,0.16173
31.9554,0.16046
31.9604,0.1598
31.9654,0.15936
31.9704,0.15657
31.9754,0.15473
31.9804,0.15463
31.9854,0.15464
31.9904,0.15552
31.9954,0.15608
32.0004,0.15634
32.0054,0.1548
32.0104,0.1546
32.0154,0.15634
32.0204,0.15736
32.0254,0.15906
32.0304,0.15934
32.0354,0.15828
32.0404,0.1584
32.0454,0.15894
32.0504,0.1588
32.0554,0.15836
32.0604,0.15936
32.0654,0.15992
32.0704,0.16032
32.0754,0.16118
32.0804,0.16117
32.0854,0.16062
32.0904,0.1614
32.0954,0.16049
32.1004,0.15899
32.1054,0.15691
32.1104,0.15711
32.1154,0.15723
32.1204,0.15656
32.1254,0.15516
32.1304,0.15432
32.1354,0.15357
32.1404,0.15512
32.1454,0.15533
32.1504,0.15611
32.1554,0.15556
32.1604,0.15633
32.1654,0.15795
32.1704,0.1598
32.1754,0.1601
32.1804,0.16055
32.1854,0.16017
32.1904,0.16137
32.1954,0.16063
32.2004,0.15968
32.2054,0.15959
32.2104,0.16237
32.2154,0.16318
32.2204,0.16246
32.2254,0.16067
32.2304,0.16141
32.2354,0.1608
32.2404,0.16029
32.2454,0.15935
32.2504,0.15939
32.2554,0.15918
32.2604,0.15982
32.2654,0.15933
32.2704,0.15918
32.2754,0.15945
32.2804,0.15965
32.2854,0.15946
32.2904,0.16024
32.2954,0.16077
32.3004,0.16205
32.3054,0.16218
32.3104,0.16309
32.3154,0.16273
32.3204,0.16223
32.3254,0.16227
32.3304,0.16171
32.3354,0.16152
32.3404,0.16105
32.3454,0.16047
32.3504,0.16043
32.3554,0.16026
32.3604,0.15946
32.3654,0.15922
32.3704,0.15835
32.3754,0.15756
32.3804,0.15708
32.3854,0.15574
32.3904,0.15464
32.3954,0.1552
32.4004,0.15607
32.4054,0.15511
32.4104,0.15449
32.4154,0.1556
32.4204,0.15542
32.4254,0.15616
32.4304,0.15708
32.4354,0.15763
32.4404,0.1582
32.4454,0.16011
32.4504,0.16015
32.4554,0.15969
32.4604,0.16064
32.4654,0.15996
32.4704,0.15914
32.4754,0.15848
32.4804,0.15846
32.4854,0.15797
32.4904,0.15835
32.4954,0.15905
32.5004,0.15798
32.5054,0.1573
32.5104,0.15814
32.5154,0.15899
32.5204,0.15983
32.5254,0.16087
32.5304,0.16123
32.5354,0.16082
32.5404,0.16109
32.5454,0.16053
32.5504,0.16067
32.5554,0.16032
32.5604,0.15942
32.5654,0.15805
32.5704,0.15731
32.5754,0.15699
32.5804,0.15643
32.5854,0.15777
32.5904,0.15824
32.5954,0.15779
32.6004,0.15744
32.6054,0.15731
32.6104,0.15784
32.6154,0.15909
32.6204,0.15944
32.6254,0.1583
32.6304,0.15804
32.6354,0.15836
32.6404,0.15856
32.6454,0.1586
32.6504,0.15892
32.6554,0.15928
32.6604,0.15916
32.6654,0.15952
32.6704,0.15946
32.6754,0.15886
32.6804,0.15907
32.6854,0.15855
32.6904,0.15807
32.6954,0.15771
32.7004,0.15753
32.7054,0.15687
32.7104,0.15617
32.7154,0.15589
32.7204,0.15491
32.7254,0.15477
32.7304,0.15541
32.7354,0.15713
32.7404,0.15799
32.7454,0.15876
32.7504,0.15813
32.7554,0.1575
32.7604,0.15684
32.7654,0.15812
32.7704,0.15901
32.7754,0.15993
32.7804,0.161
32.7854,0.16165
32.7904,0.16067
32.7954,0.16105
32.8004,0.16013
32.8054,0.15902
32.8104,0.15912
32.8154,0.15992
32.8204,0.15905
32.8254,0.15812
32.8304,0.15737
32.8354,0.15655
32.8404,0.15643
32.8454,0.15634
32.8504,0.15573
32.8554,0.15597
32.8604,0.15642
32.8654,0.15776
32.8704,0.15916
32.8754,0.15991
32.8804,0.16015
32.8854,0.1611
32.8904,0.16177
32.8954,0.16188
32.9004,0.16231
32.9054,0.16234
32.9104,0.16253
32.9154,0.16266
32.9204,0.16081
32.9254,0.15947
32.9304,0.15775
32.9354,0.15694
32.9404,0.15731
32.9454,0.15739
32.9504,0.15615
32.9554,0.15523
32.9604,0.15429
32.9654,0.15387
32.9704,0.15359
32.9754,0.15468
32.9804,0.15596
32.9854,0.15801
32.9904,0.15961
32.9954,0.16058
33.0004,0.16118
33.0054,0.1629
33.0104,0.16397
33.0154,0.16494
33.0204,0.16536
33.0254,0.16631
33.0304,0.16569
33.0354,0.16496
33.0404,0.16644
33.0454,0.1663
33.0504,0.16579
33.0554,0.16454
33.0604,0.16339
33.0654,0.16277
33.0704,0.16261
33.0754,0.16272
33.0804,0.16282
33.0854,0.16272
33.0904,0.16179
33.0954,0.16073
33.1004,0.16082
33.1054,0.16
33.1104,0.15971
33.1154,0.16072
33.1204,0.16063
33.1254,0.16075
33.1304,0.1612
33.1354,0.16188
33.1404,0.16389
33.1454,0.16433
33.1504,0.16386
33.1554,0.16319
33.1604,0.16215
33.1654,0.16315
33.1704,0.16145
33.1754,0.16096
33.1804,0.16155
33.1854,0.1597
33.1904,0.15908
33.1954,0.15842
33.2004,0.15743
33.2054,0.15628
33.2104,0.15697
33.2154,0.15821
33.2204,0.15719
33.2254,0.15819
33.2304,0.15962
33.2354,0.16019
33.2404,0.16208
33.2454,0.1622
33.2504,0.16175
33.2554,0.16271
33.2604,0.16227
33.2654,0.16114
33.2704,0.1603
33.2754,0.1602
33.2804,0.16034
33.2854,0.1603
33.2904,0.16015
33.2954,0.15975
33.3004,0.15952
33.3054,0.16003
33.3104,0.16019
33.3154,0.16187
33.3204,0.16284
33.3254,0.16224
33.3304,0.16188
33.3354,0.16133
33.3404,0.16116
33.3454,0.16012
33.3504,0.15932
33.3554,0.15758
33.3604,0.1561
33.3654,0.15527
33.3704,0.1536
33.3754,0.15349
33.3804,0.15432
33.3854,0.15576
33.3904,0.15629
33.3954,0.15635
33.4004,0.15646
33.4054,0.1573
33.4104,0.16006
33.4154,0.16117
33.4204,0.16175
33.4254,0.16266
33.4304,0.16287
33.4354,0.16259
33.4404,0.16275
33.4454,0.16321
33.4504,0.16275
33.4554,0.16161
33.4604,0.16052
33.4654,0.15923
33.4704,0.15931
33.4754,0.16105
33.4804,0.16162
33.4854,0.16099
33.4904,0.16028
33.4954,0.15932
33.5004,0.15814
33.5054,0.15765
33.5104,0.15924
33.5154,0.16066
33.5204,0.16036
33.5254,0.16028
33.5304,0.15932
33.5354,0.15889
33.5404,0.15922
33.5454,0.16055
33.5504,0.16012
33.5554,0.16089
33.5604,0.16118
33.5654,0.16166
33.5704,0.16076
33.5754,0.16121
33.5804,0.16114
33.5854,0.16146
33.5904,0.16227
33.5954,0.16228
33.6004,0.16237
33.6054,0.16309
33.6104,0.16256
33.6154,0.16431
33.6204,0.16285
33.6254,0.16289
33.6304,0.1627
33.6354,0.16232
33.6404,0.16306
33.6454,0.16358
33.6504,0.1626
33.6554,0.16149
33.6604,0.16112
33.6654,0.16149
33.6704,0.1591
33.6754,0.15924
33.6804,0.15988
33.6854,0.15996
33.6904,0.15993
33.6954,0.15833
33.7004,0.15649
33.7054,0.15735
33.7104,0.15974
33.7154,0.16024
33.7204,0.16001
33.7254,0.15986
33.7304,0.16082
33.7354,0.16123
33.7404,0.16109
33.7454,0.16154
33.7504,0.16199
33.7554,0.16128
33.7604,0.16021
33.7654,0.15908
33.7704,0.15821
33.7754,0.15781
33.7804,0.15963
33.7854,0.1598
33.7904,0.15969
33.7954,0.16004
33.8004,0.16078
33.8054,0.16056
33.8104,0.16113
33.8154,0.16269
33.8204,0.16239
33.8254,0.16338
33.8304,0.16429
33.8354,0.16352
33.8404,0.16209
33.8454,0.16122
33.8504,0.1602
33.8554,0.15895
33.8604,0.15832
33.8654,0.15934
33.8704,0.15925
33.8754,0.15919
33.8804,0.15909
33.8854,0.15846
33.8904,0.15778
33.8954,0.15861
33.9004,0.15847
33.9054,0.15919
33.9104,0.15914
33.9154,0.15856
33.9204,0.15752
33.9254,0.15619
33.9304,0.15602
33.9354,0.1551
33.9404,0.15508
33.9454,0.1558
33.9504,0.1562
33.9554,0.15543
33.9604,0.15508
33.9654,0.15478
33.9704,0.15454
33.9754,0.15471
33.9804,0.15655
33.9854,0.15647
33.9904,0.157
33.9954,0.15654
34.0004,0.15604
34.0054,0.15563
34.0104,0.15708
34.0154,0.15834
34.0204,0.15879
34.0254,0.16103
34.0304,0.16096
34.0354,0.15926
34.0404,0.15895
34.0454,0.15848
34.0504,0.15964
34.0554,0.15996
34.0604,0.15945
34.0654,0.15934
34.0704,0.15784
34.0754,0.15792
34.0804,0.15661
34.0854,0.15638
34.0904,0.15682
34.0954,0.15723
34.1004,0.15836
34.1054,0.15732
34.1104,0.15679
34.1154,0.15693
34.1204,0.1559
34.1254,0.15584
34.1304,0.15533
34.1354,0.15612
34.1404,0.15672
34.1454,0.15691
34.1504,0.15703
34.1554,0.15633
34.1604,0.1584
34.1654,0.1598
34.1704,0.16062
34.1754,0.16077
34.1804,0.16293
34.1854,0.16405
34.1904,0.16412
34.1954,0.1658
34.2004,0.16651
34.2054,0.16664
34.2104,0.16727
34.2154,0.16535
34.2204,0.16476
34.2254,0.16425
34.2304,0.16608
34.2354,0.16637
34.2404,0.16777
34.2454,0.16826
34.2504,0.16742
34.2554,0.16784
34.2604,0.16803
34.2654,0.16881
34.2704,0.17031
34.2754,0.17081
34.2804,0.1722
34.2854,0.17127
34.2904,0.17075
34.2954,0.16904
34.3004,0.16834
34.3054,0.16844
34.3104,0.16795
34.3154,0.16743
34.3204,0.1664
34.3254,0.16626
34.3304,0.16652
34.3354,0.16615
34.3404,0.16721
34.3454,0.16716
34.3504,0.16755
34.3554,0.16794
34.3604,0.16703
34.3654,0.16816
34.3704,0.16988
34.3754,0.16982
34.3804,0.16925
34.3854,0.16867
34.3904,0.1679
34.3954,0.16602
34.4004,0.16502
34.4054,0.16321
34.4104,0.1623
34.4154,0.16257
34.4204,0.16142
34.4254,0.16003
34.4304,0.15953
34.4354,0.15898
34.4404,0.15848
34.4454,0.15892
34.4504,0.16034
34.4554,0.15888
34.4604,0.15884
34.4654,0.15931
34.4704,0.15924
34.4754,0.15855
34.4804,0.15758
34.4854,0.15778
34.4904,0.1587
34.4954,0.15965
34.5004,0.1592
34.5054,0.1581
34.5104,0.15915
34.5154,0.15898
34.5204,0.15825
34.5254,0.15837
34.5304,0.15888
34.5354,0.15931
34.5404,0.16012
34.5454,0.15973
34.5504,0.15907
34.5554,0.1584
34.5604,0.15923
34.5654,0.16024
34.5704,0.16265
34.5754,0.16263
34.5804,0.16223
34.5854,0.16181
34.5904,0.16191
34.5954,0.16216
34.6004,0.16237
34.6054,0.16261
34.6104,0.1638
34.6154,0.16383
34.6204,0.16255
34.6254,0.16021
34.6304,0.16002
34.6354,0.16011
34.6404,0.16029
34.6454,0.16031
34.6504,0.15927
34.6554,0.15856
34.6604,0.15803
34.6654,0.15724
34.6704,0.15645
34.6754,0.15648
34.6804,0.15701
34.6854,0.15726
34.6904,0.15764
34.6954,0.15771
34.7004,0.15816
34.7054,0.15841
34.7104,0.15829
34.7154,0.15783
34.7204,0.15698
34.7254,0.15678
34.7304,0.15735
34.7354,0.15762
34.7404,0.15815
34.7454,0.15787
34.7504,0.15748
34.7554,0.15681
34.7604,0.15588
34.7654,0.15572
34.7704,0.15532
34.7754,0.15475
34.7804,0.15489
34.7854,0.15568
34.7904,0.15575
34.7954,0.1559
34.8004,0.15522
34.8054,0.15479
34.8104,0.15468
34.8154,0.15554
34.8204,0.15528
34.8254,0.15542
34.8304,0.157
34.8354,0.15666
34.8404,0.15645
34.8454,0.15728
34.8504,0.15671
34.8554,0.15675
34.8604,0.15723
34.8654,0.15838
34.8704,0.15833
34.8754,0.15911
34.8804,0.16008
34.8854,0.1598
34.8904,0.16041
34.8954,0.1593
34.9004,0.15891
34.9054,0.15917
34.9104,0.15946
34.9154,0.15882
34.9204,0.15754
34.9254,0.1568
34.9304,0.15698
34.9354,0.1568
34.9404,0.15655
34.9454,0.15709
34.9504,0.15845
34.9554,0.15707
34.9604,0.1562
34.9654,0.15662
34.9704,0.15723
34.9754,0.15625
34.9804,0.15646
34.9854,0.15578
34.9904,0.15598
34.9954,0.1563
35.0004,0.15518
35.0054,0.15392
35.0104,0.15603
35.0154,0.15592
35.0204,0.15461
35.0254,0.154
35.0304,0.1557
35.0354,0.15685
35.0404,0.15736
35.0454,0.15805
35.0504,0.15832
35.0554,0.1585
35.0604,0.15841
35.0654,0.15706
35.0704,0.1584
35.0754,0.15996
35.0804,0.15942
35.0854,0.1593
35.0904,0.15836
35.0954,0.15952
35.1004,0.15939
35.1054,0.15959
35.1104,0.1613
35.1154,0.16182
35.1204,0.16263
35.1254,0.16284
35.1304,0.16302
35.1354,0.16576
35.1404,0.16621
35.1454,0.16741
35.1504,0.16804
35.1554,0.16748
35.1604,0.16711
35.1654,0.16556
35.1704,0.16686
35.1754,0.16753
35.1804,0.16783
35.1854,0.16904
35.1904,0.16968
35.1954,0.17138
35.2004,0.17198
35.2054,0.17199
35.2104,0.17419
35.2154,0.17675
35.2204,0.17986
35.2254,0.18037
35.2304,0.18089
35.2354,0.18262
35.2404,0.18393
35.2454,0.18451
35.2504,0.18448
35.2554,0.18459
35.2604,0.18526
35.2654,0.18422
35.2704,0.18297
35.2754,0.18214
35.2804,0.18379
35.2854,0.18537
35.2904,0.18534
35.2954,0.18441
35.3004,0.18467
35.3054,0.18454
35.3104,0.18458
35.3154,0.18476
35.3204,0.18521
35.3254,0.18593
35.3304,0.18602
35.3354,0.1843
35.3404,0.18363
35.3454,0.18389
35.3504,0.1837
35.3554,0.18337
35.3604,0.18239
35.3654,0.18302
35.3704,0.18059
35.3754,0.1799
35.3804,0.17935
35.3854,0.17835
35.3904,0.17862
35.3954,0.17837
35.4004,0.178
35.4054,0.17826
35.4104,0.17816
35.4154,0.17864
35.4204,0.17845
35.4254,0.18043
35.4304,0.1816
35.4354,0.18114
35.4404,0.18071
35.4454,0.18018
35.4504,0.17982
35.4554,0.17926
35.4604,0.17763
35.4654,0.17607
35.4704,0.176
35.4754,0.17455
35.4804,0.1751
35.4854,0.17531
35.4904,0.17725
35.4954,0.17858
35.5004,0.17881
35.5054,0.17836
35.5104,0.17763
35.5154,0.17817
35.5204,0.17912
35.5254,0.17942
35.5304,0.18077
35.5354,0.18005
35.5404,0.17989
35.5454,0.17898
35.5504,0.17762
35.5554,0.17776
35.5604,0.17801
35.5654,0.18008
35.5704,0.1807
35.5754,0.18031
35.5804,0.18064
35.5854,0.18148
35.5904,0.18204
35.5954,0.1819
35.6004,0.18127
35.6054,0.18288
35.6104,0.18359
35.6154,0.18472
35.6204,0.18473
35.6254,0.18462
35.6304,0.18492
35.6354,0.18471
35.6404,0.18392
35.6454,0.18391
35.6504,0.18484
35.6554,0.18502
35.6604,0.18359
35.6654,0.18367
35.6704,0.18282
35.6754,0.18135
35.6804,0.18163
35.6854,0.18295
35.6904,0.18242
35.6954,0.18135
35.7004,0.18026
35.7054,0.17885
35.7104,0.17835
35.7154,0.1773
35.7204,0.17607
35.7254,0.1762
35.7304,0.17591
35.7354,0.17456
35.7404,0.17239
35.7454,0.17228
35.7504,0.17249
35.7554,0.17134
35.7604,0.16895
35.7654,0.16804
35.7704,0.16795
35.7754,0.1669
35.7804,0.16624
35.7854,0.16512
35.7904,0.16459
35.7954,0.1649
35.8004,0.16412
35.8054,0.16264
35.8104,0.16325
35.8154,0.16605
35.8204,0.16714
35.8254,0.16695
35.8304,0.16714
35.8354,0.16626
35.8404,0.16647
35.8454,0.16671
35.8504,0.16611
35.8554,0.16519
35.8604,0.1651
35.8654,0.16543
35.8704,0.16347
35.8754,0.1624
35.8804,0.16267
35.8854,0.16284
35.8904,0.16175
35.8954,0.16043
35.9004,0.16
35.9054,0.15906
35.9104,0.15975
35.9154,0.16036
35.9204,0.15901
35.9254,0.15919
35.9304,0.15973
35.9354,0.16007
35.9404,0.15892
35.9454,0.15909
35.9504,0.15992
35.9554,0.15955
35.9604,0.15941
35.9654,0.15976
35.9704,0.1595
35.9754,0.15802
35.9804,0.15678
35.9854,0.15634
35.9904,0.1564
35.9954,0.15727
36.0004,0.15684
36.0054,0.15666
36.0104,0.15755
36.0154,0.15828
36.0204,0.15753
36.0254,0.15684
36.0304,0.15759
36.0354,0.15876
36.0404,0.15709
36.0454,0.15566
36.0504,0.15508
36.0554,0.15523
36.0604,0.1555
36.0654,0.15423
36.0704,0.15388
36.0754,0.15459
36.0804,0.15601
36.0854,0.15729
36.0904,0.1572
36.0954,0.1591
36.1004,0.15979
36.1054,0.15898
36.1104,0.15824
36.1154,0.15811
36.1204,0.15991
36.1254,0.15968
36.1304,0.15818
36.1354,0.1565
36.1404,0.15602
36.1454,0.15632
36.1504,0.15637
36.1554,0.1571
36.1604,0.15829
36.1654,0.16026
36.1704,0.16016
36.1754,0.15886
36.1804,0.15846
36.1854,0.15835
36.1904,0.15844
36.1954,0.1586
36.2004,0.15903
36.2054,0.15816
36.2104,0.15812
36.2154,0.15731
36.2204,0.1566
36.2254,0.15681
36.2304,0.15697
36.2354,0.15643
36.2404,0.15709
36.2454,0.15702
36.2504,0.15665
36.2554,0.15427
36.2604,0.15456
36.2654,0.15372
36.2704,0.15545
36.2754,0.15613
36.2804,0.15623
36.2854,0.15635
36.2904,0.15744
36.2954,0.15766
36.3004,0.15818
36.3054,0.15696
36.3104,0.15798
36.3154,0.15749
36.3204,0.15707
36.3254,0.15477
36.3304,0.15477
36.3354,0.15461
36.3404,0.15466
36.3454,0.15472
36.3504,0.15555
36.3554,0.15581
36.3604,0.1568
36.3654,0.15678
36.3704,0.15797
36.3754,0.15815
36.3804,0.15841
36.3854,0.15831
36.3904,0.15924
36.3954,0.16028
36.4004,0.16065
36.4054,0.15813
36.4104,0.157
36.4154,0.15685
36.4204,0.15674
36.4254,0.15614
36.4304,0.15702
36.4354,0.15724
36.4404,0.15629
36.4454,0.15577
36.4504,0.15512
36.4554,0.15463
36.4604,0.15529
36.4654,0.15683
36.4704,0.15686
36.4754,0.15711
36.4804,0.15684
36.4854,0.15676
36.4904,0.15765
36.4954,0.15822
36.5004,0.15663
36.5054,0.15655
36.5104,0.15627
36.5154,0.15594
36.5204,0.15479
36.5254,0.15426
36.5304,0.15526
36.5354,0.15575
36.5404,0.15611
36.5454,0.15541
36.5504,0.15534
36.5554,0.15604
36.5604,0.15474
36.5654,0.15547
36.5704,0.15682
36.5754,0.15742
36.5804,0.15775
36.5854,0.1561
36.5904,0.15544
36.5954,0.15644
36.6004,0.15722
36.6054,0.1567
36.6104,0.15592
36.6154,0.15642
36.6204,0.15507
36.6254,0.15378
36.6304,0.15417
36.6354,0.15446
36.6404,0.15683
36.6454,0.15741
36.6504,0.15578
36.6554,0.15612
36.6604,0.15572
36.6654,0.15652
36.6704,0.15605
36.6754,0.1569
36.6804,0.15872
36.6854,0.15739
36.6904,0.15833
36.6954,0.15681
36.7004,0.15614
36.7054,0.15616
36.7104,0.15577
36.7154,0.15731
36.7204,0.157
36.7254,0.15794
36.7304,0.15865
36.7354,0.15848
36.7404,0.16014
36.7454,0.16012
36.7504,0.16077
36.7554,0.16141
36.7604,0.16087
36.7654,0.15978
36.7704,0.15952
36.7754,0.15962
36.7804,0.16042
36.7854,0.16026
36.7904,0.16061
36.7954,0.16083
36.8004,0.1602
36.8054,0.15884
36.8104,0.15864
36.8154,0.159
36.8204,0.16067
36.8254,0.16154
36.8304,0.16325
36.8354,0.1633
36.8404,0.1624
36.8454,0.16157
36.8504,0.16101
36.8554,0.16083
36.8604,0.16052
36.8654,0.16047
36.8704,0.16165
36.8754,0.16028
36.8804,0.1597
36.8854,0.15874
36.8904,0.15829
36.8954,0.1581
36.9004,0.15827
36.9054,0.15794
36.9104,0.15884
36.9154,0.1605
36.9204,0.16041
36.9254,0.16014
36.9304,0.15972
36.9354,0.1588
36.9404,0.15864
36.9454,0.15769
36.9504,0.15767
36.9554,0.15627
36.9604,0.1558
36.9654,0.15548
36.9704,0.15494
36.9754,0.15495
36.9804,0.15406
36.9854,0.15446
36.9904,0.15568
36.9954,0.1562
37.0004,0.15664
37.0054,0.15823
37.0104,0.16049
37.0154,0.16128
37.0204,0.16087
37.0254,0.1601
37.0304,0.15961
37.0354,0.15879
37.0404,0.15909
37.0454,0.1586
37.0504,0.15964
37.0554,0.16055
37.0604,0.15987
37.0654,0.1598
37.0704,0.1593
37.0754,0.15944
37.0804,0.1614
37.0854,0.16149
37.0904,0.16277
37.0954,0.16266
37.1004,0.16234
37.1054,0.15965
37.1104,0.1585
37.1154,0.15757
37.1204,0.15617
37.1254,0.15604
37.1304,0.15538
37.1354,0.15408
37.1404,0.15636
37.1454,0.15685
37.1504,0.15731
37.1554,0.15732
37.1604,0.15621
37.1654,0.15696
37.1704,0.15762
37.1754,0.15766
37.1804,0.15861
37.1854,0.15907
37.1904,0.15966
37.1954,0.15936
37.2004,0.15912
37.2054,0.15885
37.2104,0.15888
37.2154,0.16159
37.2204,0.16171
37.2254,0.16157
37.2304,0.16234
37.2354,0.1627
37.2404,0.16383
37.2454,0.16404
37.2504,0.16223
37.2554,0.16206
37.2604,0.16256
37.2654,0.1625
37.2704,0.16158
37.2754,0.16095
37.2804,0.16179
37.2854,0.16276
37.2904,0.16051
37.2954,0.15805
37.3004,0.15672
37.3054,0.15691
37.3104,0.15656
37.3154,0.15656
37.3204,0.1567
37.3254,0.15628
37.3304,0.15682
37.3354,0.15591
37.3404,0.15476
37.3454,0.15644
37.3504,0.15845
37.3554,0.15826
37.3604,0.15841
37.3654,0.1598
37.3704,0.15892
37.3754,0.15832
37.3804,0.16005
37.3854,0.16027
37.3904,0.16084
37.3954,0.16029
37.4004,0.15842
37.4054,0.1578
37.4104,0.15915
37.4154,0.15887
37.4204,0.15787
37.4254,0.15882
37.4304,0.15964
37.4354,0.15978
37.4404,0.15952
37.4454,0.15828
37.4504,0.15875
37.4554,0.15995
37.4604,0.15921
37.4654,0.1585
37.4704,0.15935
37.4754,0.15906
37.4804,0.15866
37.4854,0.15963
37.4904,0.15834
37.4954,0.15896
37.5004,0.15979
37.5054,0.15897
37.5104,0.1601
37.5154,0.16213
37.5204,0.16243
37.5254,0.16219
37.5304,0.16245
37.5354,0.16225
37.5404,0.16037
37.5454,0.16179
37.5504,0.16146
37.5554,0.16206
37.5604,0.16163
37.5654,0.16106
37.5704,0.15961
37.5754,0.15902
37.5804,0.15913
37.5854,0.15941
37.5904,0.15941
37.5954,0.15908
37.6004,0.15711
37.6054,0.15614
37.6104,0.15494
37.6154,0.15626
37.6204,0.15493
37.6254,0.15471
37.6304,0.15544
37.6354,0.15515
37.6404,0.15482
37.6454,0.15514
37.6504,0.15665
37.6554,0.15609
37.6604,0.15602
37.6654,0.15698
37.6704,0.15733
37.6754,0.15827
37.6804,0.1593
37.6854,0.15895
37.6904,0.15891
37.6954,0.15918
37.7004,0.15979
37.7054,0.15852
37.7104,0.15897
37.7154,0.15962
37.7204,0.15922
37.7254,0.15812
37.7304,0.1577
37.7354,0.15769
37.7404,0.15776
37.7454,0.15774
37.7504,0.15779
37.7554,0.15644
37.7604,0.15738
37.7654,0.158
37.7704,0.15651
37.7754,0.15638
37.7804,0.15723
37.7854,0.15876
37.7904,0.15804
37.7954,0.15858
37.8004,0.15836
37.8054,0.15832
37.8104,0.15834
37.8154,0.15802
37.8204,0.15784
37.8254,0.15899
37.8304,0.16015
37.8354,0.16053
37.8404,0.15995
37.8454,0.15957
37.8504,0.15862
37.8554,0.15813
37.8604,0.15737
37.8654,0.15817
37.8704,0.15865
37.8754,0.15983
37.8804,0.15946
37.8854,0.15796
37.8904,0.1577
37.8954,0.15751
37.9004,0.15763
37.9054,0.15758
37.9104,0.15917
37.9154,0.15986
37.9204,0.15929
37.9254,0.15853
37.9304,0.15805
37.9354,0.1588
37.9404,0.15975
37.9454,0.16018
37.9504,0.1602
37.9554,0.1594
37.9604,0.15988
37.9654,0.15919
37.9704,0.15853
37.9754,0.15899
37.9804,0.15908
37.9854,0.15842
37.9904,0.15755
37.9954,0.15723
38.0004,0.15592
38.0054,0.15537
38.0104,0.15587
38.0154,0.15557
38.0204,0.15569
38.0254,0.15532
38.0304,0.15479
38.0354,0.15439
38.0404,0.15479
38.0454,0.15687
38.0504,0.15648
38.0554,0.15745
38.0604,0.15717
38.0654,0.15843
38.0704,0.15843
38.0754,0.15731
38.0804,0.15766
38.0854,0.1582
38.0904,0.15846
38.0954,0.15864
38.1004,0.15752
38.1054,0.15683
38.1104,0.1562
38.1154,0.15741
38.1204,0.15691
38.1254,0.15719
38.1304,0.15774
38.1354,0.15759
38.1404,0.15869
38.1454,0.16023
38.1504,0.16064
38.1554,0.15962
38.1604,0.15979
38.1654,0.1605
38.1704,0.16073
38.1754,0.15961
38.1804,0.15882
38.1854,0.15809
38.1904,0.15886
38.1954,0.15743
38.2004,0.15513
38.2054,0.15407
38.2104,0.15437
38.2154,0.15532
38.2204,0.15527
38.2254,0.15465
38.2304,0.15542
38.2354,0.1557
38.2404,0.15601
38.2454,0.15599
38.2504,0.1564
38.2554,0.1568
38.2604,0.15726
38.2654,0.15759
38.2704,0.15765
38.2754,0.15817
38.2804,0.1585
38.2854,0.15882
38.2904,0.15916
38.2954,0.15947
38.3004,0.15962
38.3054,0.15976
38.3104,0.16035
38.3154,0.16041
38.3204,0.16063
38.3254,0.16132
38.3304,0.16087
38.3354,0.16012
38.3404,0.16184
38.3454,0.16431
38.3504,0.16598
38.3554,0.16676
38.3604,0.16877
38.3654,0.17023
38.3704,0.17269
38.3754,0.17401
38.3804,0.17653
38.3854,0.18152
38.3904,0.18669
38.3954,0.18902
38.4004,0.19193
38.4054,0.1976
38.4104,0.20527
38.4154,0.21391
38.4204,0.22592
38.4254,0.2382
38.4304,0.2547
38.4354,0.2725
38.4404,0.29101
38.4454,0.31501
38.4504,0.345
38.4554,0.37848
38.4604,0.41492
38.4654,0.45488
38.4704,0.49728
38.4754,0.53986
38.4804,0.58585
38.4854,0.62919
38.4904,0.67045
38.4954,0.71191
38.5004,0.74667
38.5054,0.7737
38.5104,0.79649
38.5154,0.81302
38.5204,0.81901
38.5254,0.81423
38.5304,0.80059
38.5354,0.77701
38.5404,0.74929
38.5454,0.71572
38.5504,0.67467
38.5554,0.63078
38.5604,0.58638
38.5654,0.53865
38.5704,0.49108
38.5754,0.44642
38.5804,0.40764
38.5854,0.37408
38.5904,0.34384
38.5954,0.31625
38.6004,0.29308
38.6054,0.27314
38.6104,0.25583
38.6154,0.24259
38.6204,0.2317
38.6254,0.22036
38.6304,0.21346
38.6354,0.20594
38.6404,0.19927
38.6454,0.19402
38.6504,0.19079
38.6554,0.18693
38.6604,0.18312
38.6654,0.18107
38.6704,0.17749
38.6754,0.17512
38.6804,0.17667
38.6854,0.17578
38.6904,0.17518
38.6954,0.17509
38.7004,0.17493
38.7054,0.17293
38.7104,0.17289
38.7154,0.17478
38.7204,0.17568
38.7254,0.17778
38.7304,0.17916
38.7354,0.17816
38.7404,0.17816
38.7454,0.17923
38.7504,0.17956
38.7554,0.1797
38.7604,0.18032
38.7654,0.1812
38.7704,0.18028
38.7754,0.18123
38.7804,0.18234
38.7854,0.18215
38.7904,0.18267
38.7954,0.18309
38.8004,0.18373
38.8054,0.1842
38.8104,0.18582
38.8154,0.18821
38.8204,0.18939
38.8254,0.19152
38.8304,0.19316
38.8354,0.19471
38.8404,0.19789
38.8454,0.20143
38.8504,0.20497
38.8554,0.20746
38.8604,0.2099
38.8654,0.21332
38.8704,0.21674
38.8754,0.22078
38.8804,0.22572
38.8854,0.23097
38.8904,0.23551
38.8954,0.23929
38.9004,0.24356
38.9054,0.24809
38.9104,0.25367
38.9154,0.26136
38.9204,0.26813
38.9254,0.27513
38.9304,0.28225
38.9354,0.28892
38.9404,0.29765
38.9454,0.30623
38.9504,0.31567
38.9554,0.32369
38.9604,0.33156
38.9654,0.33922
38.9704,0.34541
38.9754,0.35077
38.9804,0.35647
38.9854,0.36201
38.9904,0.36654
38.9954,0.36856
39.0004,0.36928
39.0054,0.36872
39.0104,0.3691
39.0154,0.36774
39.0204,0.36554
39.0254,0.36215
39.0304,0.35932
39.0354,0.3555
39.0404,0.35065
39.0454,0.34496
39.0504,0.33766
39.0554,0.33108
39.0604,0.32405
39.0654,0.31509
39.0704,0.30691
39.0754,0.29814
39.0804,0.29064
39.0854,0.28205
39.0904,0.27313
39.0954,0.26528
39.1004,0.25802
39.1054,0.25098
39.1104,0.24428
39.1154,0.23724
39.1204,0.2321
39.1254,0.22705
39.1304,0.22165
39.1354,0.21601
39.1404,0.21246
39.1454,0.20919
39.1504,0.20397
39.1554,0.19975
39.1604,0.19604
39.1654,0.19255
39.1704,0.19032
39.1754,0.18822
39.1804,0.18665
39.1854,0.18565
39.1904,0.18444
39.1954,0.18236
39.2004,0.17946
39.2054,0.17709
39.2104,0.17475
39.2154,0.17313
39.2204,0.172
39.2254,0.17053
39.2304,0.16838
39.2354,0.16675
39.2404,0.16492
39.2454,0.16364
39.2504,0.16155
39.2554,0.16052
39.2604,0.16044
39.2654,0.16055
39.2704,0.16097
39.2754,0.16103
39.2804,0.1619
39.2854,0.1618
39.2904,0.1614
39.2954,0.16131
39.3004,0.16074
39.3054,0.16041
39.3104,0.16015
39.3154,0.15993
39.3204,0.15887
39.3254,0.15825
39.3304,0.15714
39.3354,0.1551
39.3404,0.15518
39.3454,0.15557
39.3504,0.15544
39.3554,0.15481
39.3604,0.15471
39.3654,0.15526
39.3704,0.15546
39.3754,0.15585
39.3804,0.15497
39.3854,0.15583
39.3904,0.15846
39.3954,0.15862
39.4004,0.15691
39.4054,0.15501
39.4104,0.15611
39.4154,0.15688
39.4204,0.15621
39.4254,0.15548
39.4304,0.15526
39.4354,0.15595
39.4404,0.15591
39.4454,0.15469
39.4504,0.15388
39.4554,0.15422
39.4604,0.15667
39.4654,0.15685
39.4704,0.15621
39.4754,0.15587
39.4804,0.1563
39.4854,0.15575
39.4904,0.15538
39.4954,0.15495
39.5004,0.15458
39.5054,0.15482
39.5104,0.15562
39.5154,0.15565
39.5204,0.1555
39.5254,0.15611
39.5304,0.1569
39.5354,0.15697
39.5404,0.15756
39.5454,0.15849
39.5504,0.15883
39.5554,0.15859
39.5604,0.15773
39.5654,0.1576
39.5704,0.15686
39.5754,0.15603
39.5804,0.1554
39.5854,0.15558
39.5904,0.15528
39.5954,0.15609
39.6004,0.15565
39.6054,0.15526
39.6104,0.15606
39.6154,0.1572
39.6204,0.15621
39.6254,0.15634
39.6304,0.15607
39.6354,0.15727
39.6404,0.15773
39.6454,0.15863
39.6504,0.15868
39.6554,0.15834
39.6604,0.1582
39.6654,0.15848
39.6704,0.15791
39.6754,0.15719
39.6804,0.15813
39.6854,0.15927
39.6904,0.15972
39.6954,0.15958
39.7004,0.15843
39.7054,0.15747
39.7104,0.15807
39.7154,0.15797
39.7204,0.15662
39.7254,0.15561
39.7304,0.15683
39.7354,0.15609
39.7404,0.15598
39.7454,0.15441
39.7504,0.15406
39.7554,0.15495
39.7604,0.15551
39.7654,0.15511
39.7704,0.15565
39.7754,0.15678
39.7804,0.15934
39.7854,0.1596
39.7904,0.15922
39.7954,0.15996
39.8004,0.16078
39.8054,0.16041
39.8104,0.16027
39.8154,0.15954
39.8204,0.16003
39.8254,0.15969
39.8304,0.16008
39.8354,0.15989
39.8404,0.16084
39.8454,0.16197
39.8504,0.1616
39.8554,0.16121
39.8604,0.1605
39.8654,0.1598
39.8704,0.16079
39.8754,0.1596
39.8804,0.16003
39.8854,0.15964
39.8904,0.15884
39.8954,0.15973
39.9004,0.15949
39.9054,0.15921
39.9104,0.15908
39.9154,0.16043
39.9204,0.16139
39.9254,0.16001
39.9304,0.16011
39.9354,0.15939
39.9404,0.15886
39.9454,0.1591
39.9504,0.15801
39.9554,0.15783
39.9604,0.15728
39.9654,0.15806
39.9704,0.15737
39.9754,0.15701
39.9804,0.15832
39.9854,0.15906
39.9904,0.15955
39.9954,0.16015
40.0004,0.16014
40.0054,0.15932
40.0104,0.15923
40.0154,0.16082
40.0204,0.1607
40.0254,0.16073
40.0304,0.15965
40.0354,0.15988
40.0404,0.15998
40.0454,0.15894
40.0504,0.15904
40.0554,0.15847
40.0604,0.15869
40.0654,0.15788
40.0704,0.15714
40.0754,0.15678
40.0804,0.15723
40.0854,0.15928
40.0904,0.15927
40.0954,0.15882
40.1004,0.15938
40.1054,0.15812
40.1104,0.15759
40.1154,0.15717
40.1204,0.15742
40.1254,0.15774
40.1304,0.15856
40.1354,0.15913
40.1404,0.15902
40.1454,0.15859
40.1504,0.15915
40.1554,0.1586
40.1604,0.15901
40.1654,0.16067
40.1704,0.16177
40.1754,0.16206
40.1804,0.16141
40.1854,0.16
40.1904,0.15928
40.1954,0.15771
40.2004,0.15649
40.2054,0.1556
40.2104,0.15557
40.2154,0.15616
40.2204,0.15479
40.2254,0.15526
40.2304,0.15651
40.2354,0.15605
40.2404,0.15704
40.2454,0.15678
40.2504,0.15725
40.2554,0.15792
40.2604,0.15826
40.2654,0.15966
40.2704,0.15945
40.2754,0.1595
40.2804,0.15854
40.2854,0.1576
40.2904,0.15967
40.2954,0.1599
40.3004,0.16016
40.3054,0.16011
40.3104,0.15999
40.3154,0.16037
40.3204,0.16043
40.3254,0.16105
40.3304,0.16123
40.3354,0.161
40.3404,0.16086
40.3454,0.15976
40.3504,0.15918
40.3554,0.15775
40.3604,0.15745
40.3654,0.15785
40.3704,0.15687
40.3754,0.15523
40.3804,0.15465
40.3854,0.15436
40.3904,0.15489
40.3954,0.15564
40.4004,0.15533
40.4054,0.15494
40.4104,0.15624
40.4154,0.15654
40.4204,0.15611
40.4254,0.15704
40.4304,0.1583
40.4354,0.15844
40.4404,0.1592
40.4454,0.15934
40.4504,0.15725
40.4554,0.15671
40.4604,0.15792
40.4654,0.15832
40.4704,0.15875
40.4754,0.15925
40.4804,0.15881
40.4854,0.15832
40.4904,0.15755
40.4954,0.15681
40.5004,0.15637
40.5054,0.15665
40.5104,0.1567
40.5154,0.15544
40.5204,0.15497
40.5254,0.15449
40.5304,0.15442
40.5354,0.15477
40.5404,0.15594
40.5454,0.15602
40.5504,0.15677
40.5554,0.15625
40.5604,0.15712
40.5654,0.15725
40.5704,0.15727
40.5754,0.1569
40.5804,0.15738
40.5854,0.15751
40.5904,0.15742
40.5954,0.1578
40.6004,0.1578
40.6054,0.15646
40.6104,0.15683
40.6154,0.15757
40.6204,0.15743
40.6254,0.15817
40.6304,0.159
40.6354,0.15899
40.6404,0.1602
40.6454,0.16045
40.6504,0.15816
40.6554,0.15776
40.6604,0.15869
40.6654,0.16
40.6704,0.15938
40.6754,0.15864
40.6804,0.15887
40.6854,0.15863
40.6904,0.15897
40.6954,0.15825
40.7004,0.15911
40.7054,0.16139
40.7104,0.16379
40.7154,0.16475
40.7204,0.16343
40.7254,0.16296
40.7304,0.16437
40.7354,0.16442
40.7404,0.1644
40.7454,0.16438
40.7504,0.16418
40.7554,0.16291
40.7604,0.16091
40.7654,0.15895
40.7704,0.15802
40.7754,0.15675
40.7804,0.15845
40.7854,0.15822
40.7904,0.15716
40.7954,0.15721
40.8004,0.15624
40.8054,0.1562
40.8104,0.15722
40.8154,0.15911
40.8204,0.15987
40.8254,0.16048
40.8304,0.16203
40.8354,0.16096
40.8404,0.16063
40.8454,0.16094
40.8504,0.1606
40.8554,0.16045
40.8604,0.15936
40.8654,0.1573
40.8704,0.15662
40.8754,0.15607
40.8804,0.1564
40.8854,0.1557
40.8904,0.15493
40.8954,0.15526
40.9004,0.15619
40.9054,0.15602
40.9104,0.15619
40.9154,0.15665
40.9204,0.15851
40.9254,0.15827
40.9304,0.15757
40.9354,0.15734
40.9404,0.15848
40.9454,0.15903
40.9504,0.15913
40.9554,0.15789
40.9604,0.15731
40.9654,0.15756
40.9704,0.15826
40.9754,0.15631
40.9804,0.15589
40.9854,0.15641
40.9904,0.15641
40.9954,0.15663
41.0004,0.15676
41.0054,0.15598
41.0104,0.1562
41.0154,0.15698
41.0204,0.15747
41.0254,0.15716
41.0304,0.15796
41.0354,0.15885
41.0404,0.16042
41.0454,0.16009
41.0504,0.1583
41.0554,0.15729
41.0604,0.15814
41.0654,0.15869
41.0704,0.15903
41.0754,0.15828
41.0804,0.15838
41.0854,0.15914
41.0904,0.15833
41.0954,0.15745
41.1004,0.15544
41.1054,0.15592
41.1104,0.15724
41.1154,0.15622
41.1204,0.15665
41.1254,0.15775
41.1304,0.15825
41.1354,0.15859
41.1404,0.15862
41.1454,0.15935
41.1504,0.15873
41.1554,0.16103
41.1604,0.16055
41.1654,0.15964
41.1704,0.16007
41.1754,0.15876
41.1804,0.15727
41.1854,0.15763
41.1904,0.1573
41.1954,0.15734
41.2004,0.15642
41.2054,0.15545
41.2104,0.15469
41.2154,0.15539
41.2204,0.1565
41.2254,0.15625
41.2304,0.15622
41.2354,0.15608
41.2404,0.15609
41.2454,0.15523
41.2504,0.15527
41.2554,0.15514
41.2604,0.15505
41.2654,0.15574
41.2704,0.1554
41.2754,0.15429
41.2804,0.15488
41.2854,0.15625
41.2904,0.15767
41.2954,0.1582
41.3004,0.15914
41.3054,0.15765
41.3104,0.15817
41.3154,0.15987
41.3204,0.15922
41.3254,0.15998
41.3304,0.16041
41.3354,0.16025
41.3404,0.15953
41.3454,0.15863
41.3504,0.15792
41.3554,0.15692
41.3604,0.15741
41.3654,0.15765
41.3704,0.15735
41.3754,0.15662
41.3804,0.15636
41.3854,0.1555
41.3904,0.15562
41.3954,0.15621
41.4004,0.15702
41.4054,0.1572
41.4104,0.15831
41.4154,0.15879
41.4204,0.15862
41.4254,0.15856
41.4304,0.15995
41.4354,0.16066
41.4404,0.16291
41.4454,0.16257
41.4504,0.16209
41.4554,0.16084
41.4604,0.16057
41.4654,0.1604
41.4704,0.16005
41.4754,0.15958
41.4804,0.16049
41.4854,0.16135
41.4904,0.16135
41.4954,0.15992
41.5004,0.16093
41.5054,0.16158
41.5104,0.16213
41.5154,0.16249
41.5204,0.16266
41.5254,0.16317
41.5304,0.16383
41.5354,0.16305
41.5404,0.1624
41.5454,0.16165
41.5504,0.16264
41.5554,0.16337
41.5604,0.16248
41.5654,0.16364
41.5704,0.16317
41.5754,0.16209
41.5804,0.16196
41.5854,0.16199
41.5904,0.1624
41.5954,0.16253
41.6004,0.1627
41.6054,0.1619
41.6104,0.16026
41.6154,0.16121
41.6204,0.16061
41.6254,0.16094
41.6304,0.16124
41.6354,0.16058
41.6404,0.16073
41.6454,0.16036
41.6504,0.15911
41.6554,0.15873
41.6604,0.15941
41.6654,0.16017
41.6704,0.16071
41.6754,0.16043
41.6804,0.16055
41.6854,0.16116
41.6904,0.16312
41.6954,0.1629
41.7004,0.16254
41.7054,0.16238
41.7104,0.16256
41.7154,0.16181
41.7204,0.16114
41.7254,0.16018
41.7304,0.16023
41.7354,0.16023
41.7404,0.1607
41.7454,0.16008
41.7504,0.1594
41.7554,0.15945
41.7604,0.15972
41.7654,0.1591
41.7704,0.15798
41.7754,0.15699
41.7804,0.15587
41.7854,0.15492
41.7904,0.1549
41.7954,0.15473
41.8004,0.15472
41.8054,0.15469
41.8104,0.15468
41.8154,0.1561
41.8204,0.15748
41.8254,0.15797
41.8304,0.15822
41.8354,0.15929
41.8404,0.15952
41.8454,0.15896
41.8504,0.1593
41.8554,0.15792
41.8604,0.15716
41.8654,0.15725
41.8704,0.15599
41.8754,0.15454
41.8804,0.15536
41.8854,0.15607
41.8904,0.15625
41.8954,0.1576
41.9004,0.1586
41.9054,0.15823
41.9104,0.1594
41.9154,0.16053
41.9204,0.16068
41.9254,0.16081
41.9304,0.16097
41.9354,0.16098
41.9404,0.1617
41.9454,0.16112
41.9504,0.16021
41.9554,0.15918
41.9604,0.15792
41.9654,0.15723
41.9704,0.15704
41.9754,0.15704
41.9804,0.15775
41.9854,0.15949
41.9904,0.16056
41.9954,0.16082
42.0004,0.1606
42.0054,0.15923
42.0104,0.15858
42.0154,0.15985
42.0204,0.16102
42.0254,0.16246
42.0304,0.16242
42.0354,0.16087
42.0404,0.15973
42.0454,0.1589
42.0504,0.15902
42.0554,0.16016
42.0604,0.16047
42.0654,0.16104
42.0704,0.1603
42.0754,0.15867
42.0804,0.15704
42.0854,0.1574
42.0904,0.15913
42.0954,0.15992
42.1004,0.15937
42.1054,0.157
42.1104,0.15551
42.1154,0.15709
42.1204,0.15707
42.1254,0.15733
42.1304,0.15774
42.1354,0.15773
42.1404,0.15716
42.1454,0.15589
42.1504,0.15484
42.1554,0.15433
42.1604,0.15545
42.1654,0.15549
42.1704,0.15491
42.1754,0.15616
42.1804,0.15544
42.1854,0.15459
42.1904,0.15588
42.1954,0.15602
42.2004,0.15513
42.2054,0.15532
42.2104,0.15682
42.2154,0.15667
42.2204,0.15751
42.2254,0.15693
42.2304,0.1566
42.2354,0.15757
42.2404,0.15869
42.2454,0.15889
42.2504,0.15925
42.2554,0.15913
42.2604,0.15763
42.2654,0.15726
42.2704,0.15798
42.2754,0.15713
42.2804,0.15816
42.2854,0.15825
42.2904,0.15775
42.2954,0.157
42.3004,0.15507
42.3054,0.15458
42.3104,0.15577
42.3154,0.15719
42.3204,0.15646
42.3254,0.15564
42.3304,0.15596
42.3354,0.15561
42.3404,0.15458
42.3454,0.15536
42.3504,0.15714
42.3554,0.15798
42.3604,0.15821
42.3654,0.15906
42.3704,0.15835
42.3754,0.15741
42.3804,0.15784
42.3854,0.15877
42.3904,0.15935
42.3954,0.15921
42.4004,0.15797
42.4054,0.15718
42.4104,0.1576
42.4154,0.15782
42.4204,0.1573
42.4254,0.15877
42.4304,0.16027
42.4354,0.16095
42.4404,0.15983
42.4454,0.15957
42.4504,0.16049
42.4554,0.16061
42.4604,0.16007
42.4654,0.15945
42.4704,0.15982
42.4754,0.15933
42.4804,0.15985
42.4854,0.15988
42.4904,0.15952
42.4954,0.16019
42.5004,0.1604
42.5054,0.16024
42.5104,0.16025
42.5154,0.16006
42.5204,0.16027
42.5254,0.16106
42.5304,0.16161
42.5354,0.16162
42.5404,0.16203
42.5454,0.16195
42.5504,0.16268
42.5554,0.16231
42.5604,0.1618
42.5654,0.16277
42.5704,0.16343
42.5754,0.16271
42.5804,0.16098
42.5854,0.16079
42.5904,0.15994
42.5954,0.15924
42.6004,0.16017
42.6054,0.15898
42.6104,0.15885
42.6154,0.15988
42.6204,0.15939
42.6254,0.1589
42.6304,0.15886
42.6354,0.1589
42.6404,0.15964
42.6454,0.15912
42.6504,0.15963
42.6554,0.15747
42.6604,0.1565
42.6654,0.15631
42.6704,0.1563
42.6754,0.15592
42.6804,0.1565
42.6854,0.15806
42.6904,0.15847
42.6954,0.15798
42.7004,0.15824
42.7054,0.15689
42.7104,0.15769
42.7154,0.15942
42.7204,0.15921
42.7254,0.15743
42.7304,0.15778
42.7354,0.1578
42.7404,0.15786
42.7454,0.15856
42.7504,0.15915
42.7554,0.15885
42.7604,0.1586
42.7654,0.15863
42.7704,0.15708
42.7754,0.1556
42.7804,0.15579
42.7854,0.15618
42.7904,0.15687
42.7954,0.15651
42.8004,0.15481
42.8054,0.15331
42.8104,0.1539
42.8154,0.15588
42.8204,0.15541
42.8254,0.15626
42.8304,0.15773
42.8354,0.15859
42.8404,0.15846
42.8454,0.1585
42.8504,0.15865
42.8554,0.15916
42.8604,0.15955
42.8654,0.15932
42.8704,0.15805
42.8754,0.15875
42.8804,0.15976
42.8854,0.16081
42.8904,0.16046
42.8954,0.16122
42.9004,0.15964
42.9054,0.15883
42.9104,0.15807
42.9154,0.15763
42.9204,0.15742
42.9254,0.1586
42.9304,0.15964
42.9354,0.15922
42.9404,0.15908
42.9454,0.16034
42.9504,0.15982
42.9554,0.1602
42.9604,0.16063
42.9654,0.16292
42.9704,0.16368
42.9754,0.1627
42.9804,0.16179
42.9854,0.16143
42.9904,0.16218
42.9954,0.16234
43.0004,0.16014
43.0054,0.15954
43.0104,0.16013
43.0154,0.16026
43.0204,0.15833
43.0254,0.15792
43.0304,0.15941
43.0354,0.15913
43.0404,0.15784
43.0454,0.15716
43.0504,0.15674
43.0554,0.15734
43.0604,0.15715
43.0654,0.15765
43.0704,0.15704
43.0754,0.15746
43.0804,0.15778
43.0854,0.15742
43.0904,0.15732
43.0954,0.15755
43.1004,0.15637
43.1054,0.15553
43.1104,0.156
43.1154,0.15692
43.1204,0.15577
43.1254,0.15635
43.1304,0.1577
43.1354,0.15812
43.1404,0.15713
43.1454,0.15767
43.1504,0.15828
43.1554,0.15897
43.1604,0.1597
43.1654,0.16019
43.1704,0.1599
43.1754,0.16066
43.1804,0.16107
43.1854,0.16076
43.1904,0.16004
43.1954,0.16158
43.2004,0.16122
43.2054,0.1603
43.2104,0.16093
43.2154,0.16081
43.2204,0.1601
43.2254,0.15981
43.2304,0.15928
43.2354,0.15853
43.2404,0.15777
43.2454,0.15788
43.2504,0.15686
43.2554,0.15717
43.2604,0.15787
43.2654,0.15742
43.2704,0.15728
43.2754,0.15791
43.2804,0.15869
43.2854,0.15896
43.2904,0.15854
43.2954,0.15877
43.3004,0.15837
43.3054,0.15868
43.3104,0.15862
43.3154,0.15869
43.3204,0.15856
43.3254,0.15867
43.3304,0.15803
43.3354,0.15646
43.3404,0.15673
43.3454,0.1582
43.3504,0.15806
43.3554,0.15775
43.3604,0.15692
43.3654,0.15687
43.3704,0.15627
43.3754,0.15549
43.3804,0.15606
43.3854,0.15789
43.3904,0.15921
43.3954,0.15942
43.4004,0.15773
43.4054,0.15709
43.4104,0.15848
43.4154,0.15994
43.4204,0.16015
43.4254,0.16013
43.4304,0.16127
43.4354,0.15971
43.4404,0.15798
43.4454,0.15816
43.4504,0.15796
43.4554,0.15789
43.4604,0.15755
43.4654,0.15717
43.4704,0.15545
43.4754,0.15412
43.4804,0.15454
43.4854,0.15398
43.4904,0.15618
43.4954,0.15679
43.5004,0.15519
43.5054,0.15461
43.5104,0.15564
43.5154,0.15622
43.5204,0.15608
43.5254,0.15638
43.5304,0.15827
43.5354,0.15825
43.5404,0.15747
43.5454,0.15612
43.5504,0.15564
43.5554,0.1566
43.5604,0.15577
43.5654,0.15473
43.5704,0.15435
43.5754,0.15487
43.5804,0.15598
43.5854,0.15544
43.5904,0.15532
43.5954,0.15622
43.6004,0.15587
43.6054,0.15596
43.6104,0.15581
43.6154,0.15706
43.6204,0.15752
43.6254,0.15852
43.6304,0.15763
43.6354,0.15725
43.6404,0.15727
43.6454,0.15868
43.6504,0.15966
43.6554,0.16016
43.6604,0.15989
43.6654,0.16039
43.6704,0.15981
43.6754,0.16015
43.6804,0.15992
43.6854,0.16015
43.6904,0.16106
43.6954,0.16061
43.7004,0.15846
43.7054,0.15658
43.7104,0.15651
43.7154,0.1565
43.7204,0.15581
43.7254,0.15518
43.7304,0.155
43.7354,0.15497
43.7404,0.15561
43.7454,0.15494
43.7504,0.1556
43.7554,0.15653
43.7604,0.15764
43.7654,0.15813
43.7704,0.15816
43.7754,0.15818
43.7804,0.1603
43.7854,0.16073
43.7904,0.16106
43.7954,0.1605
43.8004,0.15992
43.8054,0.15903
43.8104,0.1592
43.8154,0.16035
43.8204,0.15997
43.8254,0.16004
43.8304,0.16174
43.8354,0.16109
43.8404,0.16075
43.8454,0.1605
43.8504,0.16085
43.8554,0.16037
43.8604,0.15943
43.8654,0.15835
43.8704,0.15759
43.8754,0.15782
43.8804,0.15746
43.8854,0.15583
43.8904,0.15516
43.8954,0.1554
43.9004,0.15484
43.9054,0.15386
43.9104,0.15449
43.9154,0.156
43.9204,0.15731
43.9254,0.15746
43.9304,0.1567
43.9354,0.15773
43.9404,0.15759
43.9454,0.15802
43.9504,0.15874
43.9554,0.1582
43.9604,0.15798
43.9654,0.15931
43.9704,0.16022
43.9754,0.15892
43.9804,0.15761
43.9854,0.15763
43.9904,0.1571
43.9954,0.15812
44.0004,0.15806
44.0054,0.15764
44.0104,0.15886
44.0154,0.15943
44.0204,0.15847
44.0254,0.15726
44.0304,0.15744
44.0354,0.15762
44.0404,0.15769
44.0454,0.1576
44.0504,0.15755
44.0554,0.15698
44.0604,0.156
44.0654,0.15659
44.0704,0.15659
44.0754,0.1556
44.0804,0.15684
44.0854,0.15848
44.0904,0.15878
44.0954,0.159
44.1004,0.16019
44.1054,0.15999
44.1104,0.1609
44.1154,0.16113
44.1204,0.16108
44.1254,0.16155
44.1304,0.16204
44.1354,0.16149
44.1404,0.16026
44.1454,0.16097
44.1504,0.1614
44.1554,0.15866
44.1604,0.15824
44.1654,0.15766
44.1704,0.15806
44.1754,0.1562
44.1804,0.15558
44.1854,0.15522
44.1904,0.15549
44.1954,0.15561
44.2004,0.15473
44.2054,0.15443
44.2104,0.15568
44.2154,0.15558
44.2204,0.1558
44.2254,0.15519
44.2304,0.15664
44.2354,0.15755
44.2404,0.15766
44.2454,0.15802
44.2504,0.15829
44.2554,0.15791
44.2604,0.15704
44.2654,0.15669
44.2704,0.15667
44.2754,0.15732
44.2804,0.15809
44.2854,0.15714
44.2904,0.15708
44.2954,0.15768
44.3004,0.15697
44.3054,0.15664
44.3104,0.15769
44.3154,0.15842
44.3204,0.1588
44.3254,0.15943
44.3304,0.15945
44.3354,0.15965
44.3404,0.16029
44.3454,0.16016
44.3504,0.16051
44.3554,0.16029
44.3604,0.16013
44.3654,0.15999
44.3704,0.15991
44.3754,0.15921
44.3804,0.15826
44.3854,0.15723
44.3904,0.15751
44.3954,0.15786
44.4004,0.15718
44.4054,0.1561
44.4104,0.15561
44.4154,0.1559
44.4204,0.15595
44.4254,0.15566
44.4304,0.15582
44.4354,0.15626
44.4404,0.15555
44.4454,0.15464
44.4504,0.15439
44.4554,0.15505
44.4604,0.15591
44.4654,0.15614
44.4704,0.15569
44.4754,0.1547
44.4804,0.15604
44.4854,0.15735
44.4904,0.15816
44.4954,0.15906
44.5004,0.15924
44.5054,0.15871
44.5104,0.15818
44.5154,0.15834
44.5204,0.15732
44.5254,0.15737
44.5304,0.15888
44.5354,0.15813
44.5404,0.15771
44.5454,0.15726
44.5504,0.15681
44.5554,0.15608
44.5604,0.15568
44.5654,0.15646
44.5704,0.15712
44.5754,0.15716
44.5804,0.15883
44.5854,0.16006
44.5904,0.1603
44.5954,0.16175
44.6004,0.16268
44.6054,0.16397
44.6104,0.16563
44.6154,0.1685
44.6204,0.17042
44.6254,0.17034
44.6304,0.17277
44.6354,0.1741
44.6404,0.17497
44.6454,0.17716
44.6504,0.1791
44.6554,0.18207
44.6604,0.18526
44.6654,0.18865
44.6704,0.19225
44.6754,0.19638
44.6804,0.20322
44.6854,0.20974
44.6904,0.21653
44.6954,0.22246
44.7004,0.22926
44.7054,0.23525
44.7104,0.24236
44.7154,0.2498
44.7204,0.25694
44.7254,0.26294
44.7304,0.26886
44.7354,0.27315
44.7404,0.27993
44.7454,0.28558
44.7504,0.29161
44.7554,0.29588
44.7604,0.29961
44.7654,0.30241
44.7704,0.30395
44.7754,0.30521
44.7804,0.30645
44.7854,0.30521
44.7904,0.3026
44.7954,0.29766
44.8004,0.29139
44.8054,0.28407
44.8104,0.28027
44.8154,0.27536
44.8204,0.26824
44.8254,0.26194
44.8304,0.25625
44.8354,0.24919
44.8404,0.24322
44.8454,0.23937
44.8504,0.23449
44.8554,0.22935
44.8604,0.22497
44.8654,0.21754
44.8704,0.21222
44.8754,0.20809
44.8804,0.20443
44.8854,0.19967
44.8904,0.19591
44.8954,0.19387
44.9004,0.1895
44.9054,0.18613
44.9104,0.18411
44.9154,0.1822
44.9204,0.18077
44.9254,0.1775
44.9304,0.17584
44.9354,0.17217
44.9404,0.16959
44.9454,0.16734
44.9504,0.16466
44.9554,0.16367
44.9604,0.16279
44.9654,0.16216
44.9704,0.16127
44.9754,0.15945
44.9804,0.15952
44.9854,0.15847
44.9904,0.15874
44.9954,0.15942
45.0004,0.15912
45.0054,0.15896
45.0104,0.15872
45.0154,0.15796
45.0204,0.15671
45.0254,0.15592
45.0304,0.15673
45.0354,0.1574
45.0404,0.15742
45.0454,0.15749
45.0504,0.15702
45.0554,0.15715
45.0604,0.15671
45.0654,0.15656
45.0704,0.15689
45.0754,0.15779
45.0804,0.15849
45.0854,0.15852
45.0904,0.15838
45.0954,0.15772
45.1004,0.15853
45.1054,0.15831
45.1104,0.15853
45.1154,0.15817
45.1204,0.15814
45.1254,0.15814
45.1304,0.15727
45.1354,0.157
45.1404,0.15706
45.1454,0.15693
45.1504,0.15771
45.1554,0.15599
45.1604,0.1555
45.1654,0.15651
45.1704,0.15681
45.1754,0.15647
45.1804,0.15581
45.1854,0.1552
45.1904,0.15525
45.1954,0.15518
45.2004,0.15547
45.2054,0.15438
45.2104,0.15569
45.2154,0.15661
45.2204,0.15535
45.2254,0.15462
45.2304,0.15515
45.2354,0.15471
45.2404,0.15593
45.2454,0.15581
45.2504,0.15556
45.2554,0.1553
45.2604,0.15618
45.2654,0.1558
45.2704,0.15527
45.2754,0.15571
45.2804,0.1565
45.2854,0.15575
45.2904,0.15642
45.2954,0.15552
45.3004,0.15502
45.3054,0.1554
45.3104,0.15537
45.3154,0.15561
45.3204,0.15579
45.3254,0.15478
45.3304,0.15437
45.3354,0.1549
45.3404,0.15563
45.3454,0.15659
45.3504,0.15799
45.3554,0.15947
45.3604,0.15936
45.3654,0.15986
45.3704,0.15896
45.3754,0.15867
45.3804,0.16152
45.3854,0.16299
45.3904,0.16382
45.3954,0.16459
45.4004,0.16573
45.4054,0.16527
45.4104,0.16485
45.4154,0.16532
45.4204,0.16503
45.4254,0.16622
45.4304,0.1676
45.4354,0.16671
45.4404,0.16614
45.4454,0.16579
45.4504,0.16609
45.4554,0.16488
45.4604,0.1648
45.4654,0.16632
45.4704,0.16693
45.4754,0.16741
45.4804,0.1681
45.4854,0.16874
45.4904,0.16909
45.4954,0.1698
45.5004,0.17042
45.5054,0.17001
45.5104,0.171
45.5154,0.17205
45.5204,0.17188
45.5254,0.17261
45.5304,0.17388
45.5354,0.1752
45.5404,0.17607
45.5454,0.17747
45.5504,0.17734
45.5554,0.17764
45.5604,0.17858
45.5654,0.17805
45.5704,0.17824
45.5754,0.17753
45.5804,0.17734
45.5854,0.17731
45.5904,0.17629
45.5954,0.17487
45.6004,0.17366
45.6054,0.17373
45.6104,0.17344
45.6154,0.17323
45.6204,0.17438
45.6254,0.17481
45.6304,0.17472
45.6354,0.17439
45.6404,0.17399
45.6454,0.17404
45.6504,0.1759
45.6554,0.17615
45.6604,0.17714
45.6654,0.17884
45.6704,0.17939
45.6754,0.17919
45.6804,0.17954
45.6854,0.1803
45.6904,0.18106
45.6954,0.18031
45.7004,0.1804
45.7054,0.17897
45.7104,0.17992
45.7154,0.17925
45.7204,0.17902
45.7254,0.18011
45.7304,0.18116
45.7354,0.18054
45.7404,0.18058
45.7454,0.18105
45.7504,0.1833
45.7554,0.18303
45.7604,0.1837
45.7654,0.18456
45.7704,0.18402
45.7754,0.18254
45.7804,0.18198
45.7854,0.18283
45.7904,0.18423
45.7954,0.18506
45.8004,0.18565
45.8054,0.18482
45.8104,0.1863
45.8154,0.18695
45.8204,0.18661
45.8254,0.18868
45.8304,0.18967
45.8354,0.18881
45.8404,0.18857
45.8454,0.18874
45.8504,0.1894
45.8554,0.18945
45.8604,0.18957
45.8654,0.18937
45.8704,0.18852
45.8754,0.18797
45.8804,0.18862
45.8854,0.18961
45.8904,0.19112
45.8954,0.19083
45.9004,0.19126
45.9054,0.19139
45.9104,0.1915
45.9154,0.19307
45.9204,0.19375
45.9254,0.19454
45.9304,0.1962
45.9354,0.19665
45.9404,0.19733
45.9454,0.19839
45.9504,0.19774
45.9554,0.19685
45.9604,0.19683
45.9654,0.19617
45.9704,0.19495
45.9754,0.19431
45.9804,0.1946
45.9854,0.19443
45.9904,0.1934
45.9954,0.1924
46.0004,0.19097
46.0054,0.19043
46.0104,0.19011
46.0154,0.19012
46.0204,0.19024
46.0254,0.19048
46.0304,0.19068
46.0354,0.18999
46.0404,0.1896
46.0454,0.18882
46.0504,0.1888
46.0554,0.18872
46.0604,0.18877
46.0654,0.18887
46.0704,0.18813
46.0754,0.1873
46.0804,0.18617
46.0854,0.18538
46.0904,0.18453
46.0954,0.18325
46.1004,0.18328
46.1054,0.18246
46.1104,0.18297
46.1154,0.18292
46.1204,0.18245
46.1254,0.18237
46.1304,0.18288
46.1354,0.18281
46.1404,0.18169
46.1454,0.18083
46.1504,0.18007
46.1554,0.17959
46.1604,0.17984
46.1654,0.18028
46.1704,0.18017
46.1754,0.17978
46.1804,0.17999
46.1854,0.18039
46.1904,0.18119
46.1954,0.18303
46.2004,0.1841
46.2054,0.18407
46.2104,0.18409
46.2154,0.183
46.2204,0.18053
46.2254,0.17978
46.2304,0.18031
46.2354,0.17854
46.2404,0.17719
46.2454,0.17606
46.2504,0.17389
46.2554,0.17188
46.2604,0.17147
46.2654,0.17087
46.2704,0.1706
46.2754,0.17033
46.2804,0.1707
46.2854,0.16913
46.2904,0.16912
46.2954,0.16808
46.3004,0.16637
46.3054,0.16586
46.3104,0.16731
46.3154,0.16739
46.3204,0.16692
46.3254,0.16527
46.3304,0.16478
46.3354,0.16339
46.3404,0.16222
46.3454,0.16173
46.3504,0.16178
46.3554,0.16211
46.3604,0.162
46.3654,0.16131
46.3704,0.16005
46.3754,0.15947
46.3804,0.1606
46.3854,0.16048
46.3904,0.15994
46.3954,0.1601
46.4004,0.16022
46.4054,0.16003
46.4104,0.16057
46.4154,0.15953
46.4204,0.15807
46.4254,0.15656
46.4304,0.15554
46.4354,0.15527
46.4404,0.15574
46.4454,0.15599
46.4504,0.15597
46.4554,0.15503
46.4604,0.15471
46.4654,0.15473
46.4704,0.15464
46.4754,0.15465
46.4804,0.15668
46.4854,0.15728
46.4904,0.15677
46.4954,0.15579
46.5004,0.15549
46.5054,0.15589
46.5104,0.15592
46.5154,0.15563
46.5204,0.15494
46.5254,0.15483
46.5304,0.15535
46.5354,0.15515
46.5404,0.15524
46.5454,0.15649
46.5504,0.15703
46.5554,0.15645
46.5604,0.15666
46.5654,0.15758
46.5704,0.15798
46.5754,0.15842
46.5804,0.16008
46.5854,0.16041
46.5904,0.15995
46.5954,0.15971
46.6004,0.15836
46.6054,0.15757
46.6104,0.15829
46.6154,0.15835
46.6204,0.15775
46.6254,0.15729
46.6304,0.15748
46.6354,0.15718
46.6404,0.15728
46.6454,0.15784
46.6504,0.15871
46.6554,0.15819
46.6604,0.15766
46.6654,0.15818
46.6704,0.1576
46.6754,0.15762
46.6804,0.15894
46.6854,0.15848
46.6904,0.15816
46.6954,0.15884
46.7004,0.15967
46.7054,0.15957
46.7104,0.16102
46.7154,0.16203
46.7204,0.1613
46.7254,0.16206
46.7304,0.16172
46.7354,0.16009
46.7404,0.15934
46.7454,0.15946
46.7504,0.15888
46.7554,0.15767
46.7604,0.15634
46.7654,0.15509
46.7704,0.15404
46.7754,0.15364
46.7804,0.15364
46.7854,0.15485
46.7904,0.15671
46.7954,0.15854
46.8004,0.15755
46.8054,0.15755
46.8104,0.15825
46.8154,0.15944
46.8204,0.15983
46.8254,0.16088
46.8304,0.16141
46.8354,0.16086
46.8404,0.16067
46.8454,0.16031
46.8504,0.15986
46.8554,0.16004
46.8604,0.15951
46.8654,0.16063
46.8704,0.16014
46.8754,0.1606
46.8804,0.16083
46.8854,0.16132
46.8904,0.16162
46.8954,0.16055
46.9004,0.15914
46.9054,0.15761
46.9104,0.15881
46.9154,0.16048
46.9204,0.1584
46.9254,0.15778
46.9304,0.15745
46.9354,0.15661
46.9404,0.15684
46.9454,0.15685
46.9504,0.15701
46.9554,0.1573
46.9604,0.15719
46.9654,0.15688
46.9704,0.15571
46.9754,0.15544
46.9804,0.15661
46.9854,0.1569
46.9904,0.1579
46.9954,0.1571
47.0004,0.15642
47.0054,0.15569
47.0104,0.1546
47.0154,0.15482
47.0204,0.15436
47.0254,0.15475
47.0304,0.15517
47.0354,0.15592
47.0404,0.15676
47.0454,0.15782
47.0504,0.15866
47.0554,0.15858
47.0604,0.15876
47.0654,0.1603
47.0704,0.16063
47.0754,0.16071
47.0804,0.16045
47.0854,0.16067
47.0904,0.1601
47.0954,0.15934
47.1004,0.15739
47.1054,0.15651
47.1104,0.15686
47.1154,0.15735
47.1204,0.15618
47.1254,0.15737
47.1304,0.15775
47.1354,0.15721
47.1404,0.15719
47.1454,0.15811
47.1504,0.15836
47.1554,0.15765
47.1604,0.157
47.1654,0.15691
47.1704,0.15664
47.1754,0.15724
47.1804,0.15651
47.1854,0.15712
47.1904,0.15774
47.1954,0.15885
47.2004,0.15811
47.2054,0.15791
47.2104,0.15917
47.2154,0.15985
47.2204,0.15999
47.2254,0.15945
47.2304,0.15975
47.2354,0.15965
47.2404,0.15912
47.2454,0.15952
47.2504,0.15843
47.2554,0.15721
47.2604,0.15496
47.2654,0.15469
47.2704,0.15413
47.2754,0.15477
47.2804,0.15492
47.2854,0.15517
47.2904,0.15632
47.2954,0.15634
47.3004,0.15622
47.3054,0.15604
47.3104,0.15664
47.3154,0.15935
47.3204,0.16019
47.3254,0.16096
47.3304,0.15963
47.3354,0.15985
47.3404,0.16
47.3454,0.16023
47.3504,0.15932
47.3554,0.15722
47.3604,0.15706
47.3654,0.15686
47.3704,0.15585
47.3754,0.15529
47.3804,0.15541
47.3854,0.15663
47.3904,0.15671
47.3954,0.15625
47.4004,0.15471
47.4054,0.15465
47.4104,0.15579
47.4154,0.1564
47.4204,0.15646
47.4254,0.15669
47.4304,0.15609
47.4354,0.15582
47.4404,0.1559
47.4454,0.15676
47.4504,0.15775
47.4554,0.15794
47.4604,0.15812
47.4654,0.15903
47.4704,0.15913
47.4754,0.15908
47.4804,0.15916
47.4854,0.15919
47.4904,0.16081
47.4954,0.16204
47.5004,0.16137
47.5054,0.15958
47.5104,0.15998
47.5154,0.16021
47.5204,0.16
47.5254,0.16096
47.5304,0.16232
47.5354,0.16309
47.5404,0.16445
47.5454,0.16418
47.5504,0.1637
47.5554,0.1644
47.5604,0.16594
47.5654,0.16589
47.5704,0.16558
47.5754,0.16433
47.5804,0.16444
47.5854,0.16468
47.5904,0.16417
47.5954,0.16399
47.6004,0.16231
47.6054,0.16114
47.6104,0.16186
47.6154,0.1614
47.6204,0.16104
47.6254,0.1614
47.6304,0.16238
47.6354,0.16142
47.6404,0.16032
47.6454,0.16029
47.6504,0.15985
47.6554,0.1603
47.6604,0.16092
47.6654,0.16096
47.6704,0.16091
47.6754,0.16001
47.6804,0.16055
47.6854,0.16146
47.6904,0.16159
47.6954,0.1618
47.7004,0.16167
47.7054,0.16067
47.7104,0.16111
47.7154,0.16041
47.7204,0.15813
47.7254,0.15786
47.7304,0.15893
47.7354,0.15805
47.7404,0.1581
47.7454,0.15762
47.7504,0.1567
47.7554,0.1575
47.7604,0.15848
47.7654,0.15823
47.7704,0.15994
47.7754,0.16083
47.7804,0.16087
47.7854,0.15987
47.7904,0.15998
47.7954,0.1594
47.8004,0.15943
47.8054,0.16027
47.8104,0.15849
47.8154,0.15778
47.8204,0.15594
47.8254,0.15531
47.8304,0.15611
47.8354,0.15616
47.8404,0.15734
47.8454,0.15781
47.8504,0.15784
47.8554,0.15798
47.8604,0.15847
47.8654,0.15869
47.8704,0.15925
47.8754,0.16033
47.8804,0.1598
47.8854,0.15975
47.8904,0.16001
47.8954,0.15954
47.9004,0.15973
47.9054,0.15906
47.9104,0.15939
47.9154,0.15859
47.9204,0.1584
47.9254,0.15833
47.9304,0.15894
47.9354,0.159
47.9404,0.1579
47.9454,0.15818
47.9504,0.15722
47.9554,0.15664
47.9604,0.15643
47.9654,0.15713
47.9704,0.15683
47.9754,0.15726
47.9804,0.15799
47.9854,0.15803
47.9904,0.15775
47.9954,0.15811
48.0004,0.15689
48.0054,0.1575
48.0104,0.15762
48.0154,0.15731
48.0204,0.15576
48.0254,0.15525
48.0304,0.15568
48.0354,0.15465
48.0404,0.15445
48.0454,0.15477
48.0504,0.1552
48.0554,0.15604
48.0604,0.15611
48.0654,0.15683
48.0704,0.15696
48.0754,0.15788
48.0804,0.16035
48.0854,0.16108
48.0904,0.16139
48.0954,0.16183
48.1004,0.16228
48.1054,0.16174
48.1104,0.16172
48.1154,0.16304
48.1204,0.16339
48.1254,0.16415
48.1304,0.16326
48.1354,0.16102
48.1404,0.15994
48.1454,0.16026
48.1504,0.15971
48.1554,0.15822
48.1604,0.15814
48.1654,0.15965
48.1704,0.1597
48.1754,0.15874
48.1804,0.15847
48.1854,0.15914
48.1904,0.15982
48.1954,0.16003
48.2004,0.15965
48.2054,0.161
48.2104,0.16211
48.2154,0.1636
48.2204,0.16202
48.2254,0.16189
48.2304,0.16231
48.2354,0.16203
48.2404,0.16025
48.2454,0.15983
48.2504,0.16084
48.2554,0.16135
48.2604,0.15994
48.2654,0.15887
48.2704,0.15747
48.2754,0.15807
48.2804,0.15764
48.2854,0.15776
48.2904,0.15864
48.2954,0.15981
48.3004,0.16056
48.3054,0.15957
48.3104,0.15901
48.3154,0.15946
48.3204,0.15985
48.3254,0.15973
48.3304,0.15948
48.3354,0.15821
48.3404,0.15702
48.3454,0.15535
48.3504,0.15591
48.3554,0.15528
48.3604,0.15497
48.3654,0.15487
48.3704,0.15521
48.3754,0.15493
48.3804,0.15555
48.3854,0.15513
48.3904,0.15609
48.3954,0.15718
48.4004,0.15761
48.4054,0.15684
48.4104,0.15725
48.4154,0.15803
48.4204,0.15847
48.4254,0.15787
48.4304,0.15781
48.4354,0.15809
48.4404,0.15905
48.4454,0.15839
48.4504,0.15841
48.4554,0.15979
48.4604,0.16069
48.4654,0.16134
48.4704,0.16087
48.4754,0.15962
48.4804,0.15984
48.4854,0.16058
48.4904,0.16038
48.4954,0.16007
48.5004,0.16106
48.5054,0.16056
48.5104,0.1598
48.5154,0.15829
48.5204,0.15626
48.5254,0.15568
48.5304,0.15748
48.5354,0.15786
48.5404,0.15735
48.5454,0.15782
48.5504,0.15848
48.5554,0.15858
48.5604,0.15949
48.5654,0.1597
48.5704,0.15993
48.5754,0.16062
48.5804,0.15984
48.5854,0.15893
48.5904,0.15992
48.5954,0.1609
48.6004,0.15983
48.6054,0.15831
48.6104,0.15741
48.6154,0.15689
48.6204,0.15729
48.6254,0.15742
48.6304,0.15735
48.6354,0.1576
48.6404,0.15869
48.6454,0.15819
48.6504,0.1581
48.6554,0.15861
48.6604,0.15951
48.6654,0.16021
48.6704,0.15954
48.6754,0.15872
48.6804,0.15947
48.6854,0.16004
48.6904,0.16176
48.6954,0.1609
48.7004,0.15944
48.7054,0.15819
48.7104,0.15818
48.7154,0.15807
48.7204,0.1583
48.7254,0.15814
48.7304,0.15841
48.7354,0.15921
48.7404,0.15967
48.7454,0.16025
48.7504,0.16032
48.7554,0.16061
48.7604,0.16122
48.7654,0.16112
48.7704,0.16001
48.7754,0.15892
48.7804,0.16022
48.7854,0.15923
48.7904,0.15823
48.7954,0.15883
48.8004,0.15839
48.8054,0.15813
48.8104,0.1585
48.8154,0.15753
48.8204,0.1562
48.8254,0.1567
48.8304,0.15681
48.8354,0.15633
48.8404,0.15799
48.8454,0.15786
48.8504,0.15616
48.8554,0.15452
48.8604,0.15417
48.8654,0.15422
48.8704,0.15462
48.8754,0.15519
48.8804,0.15615
48.8854,0.15707
48.8904,0.15735
48.8954,0.15731
48.9004,0.15772
48.9054,0.15802
48.9104,0.15959
48.9154,0.16008
48.9204,0.15867
48.9254,0.15805
48.9304,0.15873
48.9354,0.15808
48.9404,0.15828
48.9454,0.15844
48.9504,0.1574
48.9554,0.15663
48.9604,0.15718
48.9654,0.15606
48.9704,0.15647
48.9754,0.15815
48.9804,0.15951
48.9854,0.1594
48.9904,0.15981
48.9954,0.15913
49.0004,0.15798
49.0054,0.15826
49.0104,0.15822
49.0154,0.15758
49.0204,0.15758
49.0254,0.15799
49.0304,0.15811
49.0354,0.15732
49.0404,0.15815
49.0454,0.15819
49.0504,0.15932
49.0554,0.16
49.0604,0.15991
49.0654,0.16057
49.0704,0.16118
49.0754,0.16194
49.0804,0.1621
49.0854,0.16202
49.0904,0.16343
49.0954,0.16275
49.1004,0.16178
49.1054,0.16042
49.1104,0.16012
49.1154,0.15972
49.1204,0.15959
49.1254,0.15918
49.1304,0.15849
49.1354,0.15731
49.1404,0.15724
49.1454,0.15709
49.1504,0.15759
49.1554,0.15805
49.1604,0.15847
49.1654,0.15918
49.1704,0.16004
49.1754,0.16039
49.1804,0.15998
49.1854,0.15984
49.1904,0.15977
49.1954,0.15966
49.2004,0.15879
49.2054,0.15818
49.2104,0.15806
49.2154,0.15836
49.2204,0.15734
49.2254,0.15711
49.2304,0.15743
49.2354,0.15659
49.2404,0.1571
49.2454,0.15747
49.2504,0.15724
49.2554,0.1565
49.2604,0.15597
49.2654,0.15618
49.2704,0.15629
49.2754,0.15659
49.2804,0.15656
49.2854,0.15566
49.2904,0.15714
49.2954,0.15803
49.3004,0.15878
49.3054,0.15841
49.3104,0.15843
49.3154,0.15916
49.3204,0.15846
49.3254,0.15726
49.3304,0.15717
49.3354,0.15682
49.3404,0.1578
49.3454,0.15859
49.3504,0.15908
49.3554,0.1587
49.3604,0.15908
49.3654,0.15994
49.3704,0.16053
49.3754,0.16111
49.3804,0.16131
49.3854,0.16116
49.3904,0.16004
49.3954,0.15806
49.4004,0.15663
49.4054,0.15518
49.4104,0.15508
49.4154,0.15573
49.4204,0.15555
49.4254,0.15442
49.4304,0.15424
49.4354,0.15492
49.4404,0.15481
49.4454,0.15653
49.4504,0.15841
49.4554,0.15967
49.4604,0.16049
49.4654,0.16054
49.4704,0.16072
49.4754,0.16113
49.4804,0.16246
49.4854,0.16319
49.4904,0.16351
49.4954,0.16429
49.5004,0.1636
49.5054,0.16331
49.5104,0.16274
49.5154,0.16192
49.5204,0.16302
49.5254,0.16336
49.5304,0.16356
49.5354,0.16341
49.5404,0.16362
49.5454,0.16417
49.5504,0.16532
49.5554,0.16625
49.5604,0.16549
49.5654,0.16552
49.5704,0.16518
49.5754,0.16413
49.5804,0.16329
49.5854,0.16307
49.5904,0.1624
49.5954,0.16102
49.6004,0.15902
49.6054,0.15696
49.6104,0.156
49.6154,0.15612
49.6204,0.15517
49.6254,0.1558
49.6304,0.15574
49.6354,0.15494
49.6404,0.15442
49.6454,0.15412
49.6504,0.1551
49.6554,0.15645
49.6604,0.15705
49.6654,0.15805
49.6704,0.15857
49.6754,0.15922
49.6804,0.15902
49.6854,0.15858
49.6904,0.16041
49.6954,0.16175
49.7004,0.16163
49.7054,0.16217
49.7104,0.16285
49.7154,0.16291
49.7204,0.16232
49.7254,0.16338
49.7304,0.16428
49.7354,0.16382
49.7404,0.16469
49.7454,0.1639
49.7504,0.16299
49.7554,0.16204
49.7604,0.16106
49.7654,0.16087
49.7704,0.16078
49.7754,0.1603
49.7804,0.16001
49.7854,0.15982
49.7904,0.16014
49.7954,0.15987
49.8004,0.15992
49.8054,0.15961
49.8104,0.16121
49.8154,0.16085
49.8204,0.16045
49.8254,0.16112
49.8304,0.16122
49.8354,0.15989
49.8404,0.16032
49.8454,0.16107
49.8504,0.16186
49.8554,0.1604
49.8604,0.16026
49.8654,0.16039
49.8704,0.16077
49.8754,0.15903
49.8804,0.15892
49.8854,0.16018
49.8904,0.16134
49.8954,0.16075
49.9004,0.15998
49.9054,0.1579
49.9104,0.15881
49.9154,0.16006
49.9204,0.16041
49.9254,0.15951
49.9304,0.16017
49.9354,0.15952
49.9404,0.15848
49.9454,0.15804
49.9504,0.15758
49.9554,0.15746
49.9604,0.15765
49.9654,0.15669
49.9704,0.15478
49.9754,0.15357
49.9804,0.15481
49.9854,0.15541
49.9904,0.15555
49.9954,0.15574
50.0004,0.15561
50.0054,0.15558
50.0104,0.15587
50.0154,0.1562
50.0204,0.1576
50.0254,0.1593
50.0304,0.15979
50.0354,0.15972
50.0404,0.15991
50.0454,0.16026
50.0504,0.16135
50.0554,0.16183
50.0604,0.16152
50.0654,0.16163
50.0704,0.16137
50.0754,0.16077
50.0804,0.16107
50.0854,0.1614
50.0904,0.1606
50.0954,0.16029
50.1004,0.16002
50.1054,0.15852
50.1104,0.15776
50.1154,0.15846
50.1204,0.15835
50.1254,0.15933
50.1304,0.16088
50.1354,0.16063
50.1404,0.15994
50.1454,0.16103
50.1504,0.16143
50.1554,0.16023
50.1604,0.16027
50.1654,0.16044
50.1704,0.15977
50.1754,0.15978
50.1804,0.15966
50.1854,0.15839
50.1904,0.15827
50.1954,0.15793
50.2004,0.15747
50.2054,0.15767
50.2104,0.15984
50.2154,0.15901
50.2204,0.1591
50.2254,0.15999
50.2304,0.16018
50.2354,0.15927
50.2404,0.15887
50.2454,0.15983
50.2504,0.16106
50.2554,0.16113
50.2604,0.16078
50.2654,0.15955
50.2704,0.1602
50.2754,0.15952
50.2804,0.15926
50.2854,0.15934
50.2904,0.1588
50.2954,0.15928
50.3004,0.1577
50.3054,0.15685
50.3104,0.15667
50.3154,0.15699
50.3204,0.15719
50.3254,0.15789
50.3304,0.15828
50.3354,0.15827
50.3404,0.15772
50.3454,0.15921
50.3504,0.15928
50.3554,0.15878
50.3604,0.15695
50.3654,0.15611
50.3704,0.15565
50.3754,0.15529
50.3804,0.15616
50.3854,0.15638
50.3904,0.15625
50.3954,0.15613
50.4004,0.15559
50.4054,0.15518
50.4104,0.15643
50.4154,0.15922
50.4204,0.15987
50.4254,0.15969
50.4304,0.16008
50.4354,0.15894
50.4404,0.15934
50.4454,0.15894
50.4504,0.16003
50.4554,0.16077
50.4604,0.16061
50.4654,0.15982
50.4704,0.15906
50.4754,0.16014
50.4804,0.16131
50.4854,0.16003
50.4904,0.16017
50.4954,0.1594
50.5004,0.15922
50.5054,0.15777
50.5104,0.15628
50.5154,0.1565
50.5204,0.15724
50.5254,0.15731
50.5304,0.1553
50.5354,0.15341
50.5404,0.15487
50.5454,0.15481
50.5504,0.15476
50.5554,0.15526
50.5604,0.15656
50.5654,0.15811
50.5704,0.15788
50.5754,0.1569
50.5804,0.15621
50.5854,0.15794
50.5904,0.15971
50.5954,0.15967
50.6004,0.15957
50.6054,0.15989
50.6104,0.15914
50.6154,0.15828
50.6204,0.15798
50.6254,0.16004
50.6304,0.16019
50.6354,0.16006
50.6404,0.15903
50.6454,0.15833
50.6504,0.15817
50.6554,0.15808
50.6604,0.15797
50.6654,0.15918
50.6704,0.1599
50.6754,0.15939
50.6804,0.15682
50.6854,0.15645
50.6904,0.15697
50.6954,0.15743
50.7004,0.15603
50.7054,0.15489
50.7104,0.1553
50.7154,0.15643
50.7204,0.15543
50.7254,0.15427
50.7304,0.15384
50.7354,0.15493
50.7404,0.15677
50.7454,0.15679
50.7504,0.15648
50.7554,0.15699
50.7604,0.15802
50.7654,0.15912
50.7704,0.15857
50.7754,0.15829
50.7804,0.15898
50.7854,0.15895
50.7904,0.15817
50.7954,0.15724
50.8004,0.15723
50.8054,0.1562
50.8104,0.15723
50.8154,0.15808
50.8204,0.15694
50.8254,0.15722
50.8304,0.15847
50.8354,0.1582
50.8404,0.16047
50.8454,0.16131
50.8504,0.16258
50.8554,0.16292
50.8604,0.16389
50.8654,0.16364
50.8704,0.16219
50.8754,0.16163
50.8804,0.1606
50.8854,0.16058
50.8904,0.16164
50.8954,0.1613
50.9004,0.16077
50.9054,0.15897
50.9104,0.15854
50.9154,0.15836
50.9204,0.15811
50.9254,0.15882
50.9304,0.1586
50.9354,0.15879
50.9404,0.15787
50.9454,0.1571
50.9504,0.15544
50.9554,0.15575
50.9604,0.1554
50.9654,0.15585
50.9704,0.1562
50.9754,0.15538
50.9804,0.15541
50.9854,0.15632
50.9904,0.15548
50.9954,0.15662
51.0004,0.15656
51.0054,0.15747
51.0104,0.15655
51.0154,0.15727
51.0204,0.15728
51.0254,0.15667
51.0304,0.15789
51.0354,0.1584
51.0404,0.15875
51.0454,0.15991
51.0504,0.15884
51.0554,0.15876
51.0604,0.15693
51.0654,0.15758
51.0704,0.15768
51.0754,0.15757
51.0804,0.15876
51.0854,0.15768
51.0904,0.1566
51.0954,0.15607
51.1004,0.15532
51.1054,0.15454
51.1104,0.1547
51.1154,0.15679
51.1204,0.15675
51.1254,0.15628
51.1304,0.15591
51.1354,0.15563
51.1404,0.15674
51.1454,0.15707
51.1504,0.15742
51.1554,0.15833
51.1604,0.15887
51.1654,0.15824
51.1704,0.1564
51.1754,0.15669
51.1804,0.15718
51.1854,0.15811
51.1904,0.15762
51.1954,0.15688
51.2004,0.1563
51.2054,0.1557
51.2104,0.15498
51.2154,0.15536
51.2204,0.15642
51.2254,0.15721
51.2304,0.15763
51.2354,0.15803
51.2404,0.15752
51.2454,0.15817
51.2504,0.15859
51.2554,0.15749
51.2604,0.1574
51.2654,0.15856
51.2704,0.15859
51.2754,0.15775
51.2804,0.15706
51.2854,0.15628
51.2904,0.15609
51.2954,0.15656
51.3004,0.15648
51.3054,0.15651
51.3104,0.15838
51.3154,0.1584
51.3204,0.15692
51.3254,0.15619
51.3304,0.15608
51.3354,0.15717
51.3404,0.15742
51.3454,0.15724
51.3504,0.15667
51.3554,0.15633
51.3604,0.15571
51.3654,0.15576
51.3704,0.1563
51.3754,0.1574
51.3804,0.15897
51.3854,0.15976
51.3904,0.16014
51.3954,0.16064
51.4004,0.1602
51.4054,0.16029
51.4104,0.15995
51.4154,0.16023
51.4204,0.16042
51.4254,0.16007
51.4304,0.15964
51.4354,0.15925
51.4404,0.15896
51.4454,0.15797
51.4504,0.15756
51.4554,0.1567
51.4604,0.15604
51.4654,0.15614
51.4704,0.15586
51.4754,0.15525
51.4804,0.15489
51.4854,0.15452
51.4904,0.1547
51.4954,0.15532
51.5004,0.15599
51.5054,0.15593
51.5104,0.15701
51.5154,0.15724
51.5204,0.15772
51.5254,0.15814
51.5304,0.15884
51.5354,0.15904
51.5404,0.15982
51.5454,0.15884
51.5504,0.15929
51.5554,0.15919
51.5604,0.15834
51.5654,0.15846
51.5704,0.15947
51.5754,0.15923
51.5804,0.15945
51.5854,0.15862
51.5904,0.15892
51.5954,0.15917
51.6004,0.15924
51.6054,0.15781
51.6104,0.15809
51.6154,0.15818
51.6204,0.15701
51.6254,0.15612
51.6304,0.15607
51.6354,0.15542
51.6404,0.15506
51.6454,0.15491
51.6504,0.15448
51.6554,0.15486
51.6604,0.1554
51.6654,0.15564
51.6704,0.15691
51.6754,0.15725
51.6804,0.15715
51.6854,0.15688
51.6904,0.15681
51.6954,0.15875
51.7004,0.15933
51.7054,0.15945
51.7104,0.15988
51.7154,0.15921
51.7204,0.16002
51.7254,0.16046
51.7304,0.1609
51.7354,0.1617
51.7404,0.16195
51.7454,0.16411
51.7504,0.16409
51.7554,0.16384
51.7604,0.16305
51.7654,0.16189
51.7704,0.16233
51.7754,0.16109
51.7804,0.1602
51.7854,0.1607
51.7904,0.15948
51.7954,0.1597
51.8004,0.15932
51.8054,0.15699
51.8104,0.15693
51.8154,0.15761
51.8204,0.15765
51.8254,0.15743
51.8304,0.1564
51.8354,0.15596
51.8404,0.15654
51.8454,0.15786
51.8504,0.15829
51.8554,0.15699
51.8604,0.15858
51.8654,0.15852
51.8704,0.15861
51.8754,0.15955
51.8804,0.16052
51.8854,0.16195
51.8904,0.16233
51.8954,0.16212
51.9004,0.16123
51.9054,0.16021
51.9104,0.16025
51.9154,0.15925
51.9204,0.15918
51.9254,0.15866
51.9304,0.15781
51.9354,0.15677
51.9404,0.15655
51.9454,0.15736
51.9504,0.15769
51.9554,0.15819
51.9604,0.15922
51.9654,0.1607
51.9704,0.16153
51.9754,0.16106
51.9804,0.16168
51.9854,0.16268
51.9904,0.1637
51.9954,0.16385
52.0004,0.16153
52.0054,0.16014
52.0104,0.1603
52.0154,0.16009
52.0204,0.15938
52.0254,0.15978
52.0304,0.16028
52.0354,0.15999
52.0404,0.1605
52.0454,0.16077
52.0504,0.16022
52.0554,0.16169
52.0604,0.16161
52.0654,0.16194
52.0704,0.16078
52.0754,0.15929
52.0804,0.15828
52.0854,0.15827
52.0904,0.15847
52.0954,0.1576
52.1004,0.15667
52.1054,0.15648
52.1104,0.15549
52.1154,0.15492
52.1204,0.15397
52.1254,0.15454
52.1304,0.15547
52.1354,0.15605
52.1404,0.156
52.1454,0.15556
52.1504,0.15661
52.1554,0.15663
52.1604,0.15551
52.1654,0.1559
52.1704,0.15752
52.1754,0.15767
52.1804,0.15871
52.1854,0.15918
52.1904,0.15986
52.1954,0.16001
52.2004,0.16072
52.2054,0.1591
52.2104,0.15978
52.2154,0.16141
52.2204,0.1621
52.2254,0.16198
52.2304,0.16208
52.2354,0.16096
52.2404,0.16067
52.2454,0.15988
52.2504,0.16035
52.2554,0.15935
52.2604,0.15904
52.2654,0.15907
52.2704,0.16023
52.2754,0.15954
52.2804,0.15982
52.2854,0.16035
52.2904,0.1611
52.2954,0.1617
52.3004,0.16161
52.3054,0.16006
52.3104,0.15998
52.3154,0.1611
52.3204,0.16076
52.3254,0.15926
52.3304,0.16002
52.3354,0.15995
52.3404,0.15926
52.3454,0.15873
52.3504,0.1574
52.3554,0.1567
52.3604,0.15785
52.3654,0.15864
52.3704,0.1589
52.3754,0.15827
52.3804,0.15718
52.3854,0.15692
52.3904,0.1555
52.3954,0.15563
52.4004,0.15534
52.4054,0.15565
52.4104,0.15537
52.4154,0.15534
52.4204,0.15569
52.4254,0.15431
52.4304,0.15514
52.4354,0.15635
52.4404,0.1567
52.4454,0.15801
52.4504,0.15925
52.4554,0.16037
52.4604,0.15997
52.4654,0.16139
52.4704,0.16206
52.4754,0.16168
52.4804,0.16193
52.4854,0.16183
52.4904,0.16267
52.4954,0.16253
52.5004,0.16201
52.5054,0.1607
52.5104,0.15945
52.5154,0.15975
52.5204,0.1591
52.5254,0.15935
52.5304,0.15831
52.5354,0.15757
52.5404,0.15699
52.5454,0.15693
52.5504,0.15727
52.5554,0.15601
52.5604,0.15483
52.5654,0.15548
52.5704,0.15554
52.5754,0.1551
52.5804,0.1539
52.5854,0.1548
52.5904,0.15593
52.5954,0.15705
52.6004,0.1563
52.6054,0.15597
52.6104,0.15801
52.6154,0.15994
52.6204,0.16004
52.6254,0.15981
52.6304,0.16035
52.6354,0.16038
52.6404,0.16127
52.6454,0.16161
52.6504,0.16077
52.6554,0.16012
52.6604,0.15823
52.6654,0.1563
52.6704,0.15513
52.6754,0.15507
52.6804,0.15659
52.6854,0.15651
52.6904,0.15624
52.6954,0.15591
52.7004,0.15605
52.7054,0.15511
52.7104,0.15428
52.7154,0.15553
52.7204,0.15626
52.7254,0.15688
52.7304,0.15695
52.7354,0.15562
52.7404,0.15646
52.7454,0.15696
52.7504,0.15742
52.7554,0.15808
52.7604,0.15971
52.7654,0.16119
52.7704,0.16093
52.7754,0.15983
52.7804,0.16072
52.7854,0.16046
52.7904,0.1602
52.7954,0.15775
52.8004,0.15653
52.8054,0.15492
52.8104,0.15487
52.8154,0.15474
52.8204,0.15427
52.8254,0.15491
52.8304,0.15659
52.8354,0.1564
52.8404,0.15667
52.8454,0.15753
52.8504,0.15874
52.8554,0.15933
52.8604,0.15963
52.8654,0.15962
52.8704,0.15992
52.8754,0.1596
52.8804,0.16052
52.8854,0.16056
52.8904,0.15986
52.8954,0.16007
52.9004,0.15951
52.9054,0.1583
52.9104,0.15925
52.9154,0.15935
52.9204,0.15858
52.9254,0.15683
52.9304,0.15755
52.9354,0.15622
52.9404,0.15743
52.9454,0.15799
52.9504,0.15791
52.9554,0.15767
52.9604,0.15877
52.9654,0.15826
52.9704,0.15823
52.9754,0.15801
52.9804,0.15885
52.9854,0.15831
52.9904,0.15892
52.9954,0.1579
53.0004,0.15701
53.0054,0.15584
53.0104,0.15643
53.0154,0.15701
53.0204,0.15519
53.0254,0.15463
53.0304,0.15434
53.0354,0.15511
53.0404,0.15547
53.0454,0.1556
53.0504,0.15608
53.0554,0.15593
53.0604,0.15556
53.0654,0.15595
53.0704,0.15567
53.0754,0.15722
53.0804,0.15801
53.0854,0.15794
53.0904,0.15707
53.0954,0.1566
53.1004,0.15565
53.1054,0.1544
53.1104,0.15562
53.1154,0.15742
53.1204,0.15661
53.1254,0.15728
53.1304,0.15736
53.1354,0.15668
53.1404,0.15587
53.1454,0.15647
53.1504,0.15771
53.1554,0.15721
53.1604,0.15651
53.1654,0.15605
53.1704,0.15586
53.1754,0.15494
53.1804,0.15494
53.1854,0.15491
53.1904,0.15616
53.1954,0.15875
53.2004,0.15886
53.2054,0.15792
53.2104,0.1583
53.2154,0.1589
53.2204,0.15762
53.2254,0.15684
53.2304,0.15706
53.2354,0.15686
53.2404,0.1567
53.2454,0.15568
53.2504,0.15447
53.2554,0.15393
53.2604,0.15402
53.2654,0.15522
53.2704,0.15558
53.2754,0.15669
53.2804,0.15677
53.2854,0.15844
53.2904,0.15987
53.2954,0.16122
53.3004,0.162
53.3054,0.16123
53.3104,0.16101
53.3154,0.16101
53.3204,0.16092
53.3254,0.16088
53.3304,0.16098
53.3354,0.16135
53.3404,0.16041
53.3454,0.15854
53.3504,0.15799
53.3554,0.15723
53.3604,0.15849
53.3654,0.16012
53.3704,0.16008
53.3754,0.15879
53.3804,0.15815
53.3854,0.1569
53.3904,0.15704
53.3954,0.15701
53.4004,0.15622
53.4054,0.15504
53.4104,0.15574
53.4154,0.15637
53.4204,0.15535
53.4254,0.15558
53.4304,0.15691
53.4354,0.15814
53.4404,0.15884
53.4454,0.15725
53.4504,0.15846
53.4554,0.1592
53.4604,0.15983
53.4654,0.15891
53.4704,0.15755
53.4754,0.15696
53.4804,0.15744
53.4854,0.1561
53.4904,0.15644
53.4954,0.15731
53.5004,0.15905
53.5054,0.15695
53.5104,0.15671
53.5154,0.15669
53.5204,0.15719
53.5254,0.15827
53.5304,0.15818
53.5354,0.15892
53.5404,0.16102
53.5454,0.16068
53.5504,0.16023
53.5554,0.15896
53.5604,0.15915
53.5654,0.16016
53.5704,0.1608
53.5754,0.16089
53.5804,0.15927
53.5854,0.15972
53.5904,0.15846
53.5954,0.15729
53.6004,0.15599
53.6054,0.15621
53.6104,0.15717
53.6154,0.15848
53.6204,0.15838
53.6254,0.15745
53.6304,0.15713
53.6354,0.15829
53.6404,0.15843
53.6454,0.15952
53.6504,0.16012
53.6554,0.16055
53.6604,0.16032
53.6654,0.16107
53.6704,0.16102
53.6754,0.1608
53.6804,0.16082
53.6854,0.16119
53.6904,0.16114
53.6954,0.16088
53.7004,0.16004
53.7054,0.15951
53.7104,0.16055
53.7154,0.16027
53.7204,0.15936
53.7254,0.15912
53.7304,0.15955
53.7354,0.15984
53.7404,0.16065
53.7454,0.16154
53.7504,0.16186
53.7554,0.16143
53.7604,0.16094
53.7654,0.16117
53.7704,0.16093
53.7754,0.15972
53.7804,0.16051
53.7854,0.16028
53.7904,0.16131
53.7954,0.162
53.8004,0.16111
53.8054,0.16018
53.8104,0.16126
53.8154,0.16242
53.8204,0.16221
53.8254,0.16342
53.8304,0.16509
53.8354,0.1634
53.8404,0.16309
53.8454,0.16339
53.8504,0.16203
53.8554,0.16106
53.8604,0.16211
53.8654,0.16157
53.8704,0.16059
53.8754,0.15906
53.8804,0.15817
53.8854,0.1574
53.8904,0.15801
53.8954,0.15791
53.9004,0.15813
53.9054,0.15824
53.9104,0.15904
53.9154,0.15851
53.9204,0.15931
53.9254,0.16002
53.9304,0.1613
53.9354,0.16115
53.9404,0.16192
53.9454,0.16285
53.9504,0.16335
53.9554,0.1618
53.9604,0.16132
53.9654,0.16164
53.9704,0.16139
53.9754,0.16003
53.9804,0.16013
53.9854,0.16063
53.9904,0.16038
53.9954,0.15964
54.0004,0.15877
54.0054,0.15954
54.0104,0.15987
54.0154,0.16098
54.0204,0.16042
54.0254,0.16078
54.0304,0.16103
54.0354,0.15999
54.0404,0.159
54.0454,0.15942
54.0504,0.15984
54.0554,0.1592
54.0604,0.15807
54.0654,0.15834
54.0704,0.15683
54.0754,0.15626
54.0804,0.15705
54.0854,0.15794
54.0904,0.15944
54.0954,0.15989
54.1004,0.15871
54.1054,0.15736
54.1104,0.15792
54.1154,0.15827
54.1204,0.1594
54.1254,0.16117
54.1304,0.16211
54.1354,0.16133
54.1404,0.16061
54.1454,0.16034
54.1504,0.16025
54.1554,0.15959
54.1604,0.1606
54.1654,0.16095
54.1704,0.16268
54.1754,0.16084
54.1804,0.16014
54.1854,0.16011
54.1904,0.15956
54.1954,0.15944
54.2004,0.1584
54.2054,0.1572
54.2104,0.15848
54.2154,0.15818
54.2204,0.15778
54.2254,0.15445
54.2304,0.15411
54.2354,0.1544
54.2404,0.15527
54.2454,0.15577
54.2504,0.1555
54.2554,0.15521
54.2604,0.15554
54.2654,0.15587
54.2704,0.15553
54.2754,0.15592
54.2804,0.15849
54.2854,0.15948
54.2904,0.15899
54.2954,0.15713
54.3004,0.15613
54.3054,0.15561
54.3104,0.15614
54.3154,0.15594
54.3204,0.15617
54.3254,0.15766
54.3304,0.15695
54.3354,0.15587
54.3404,0.15572
54.3454,0.15598
54.3504,0.15683
54.3554,0.15748
54.3604,0.1579
54.3654,0.15792
54.3704,0.1589
54.3754,0.15883
54.3804,0.15843
54.3854,0.15793
54.3904,0.15834
54.3954,0.15749
54.4004,0.15624
54.4054,0.15522
54.4104,0.15661
54.4154,0.15708
54.4204,0.15694
54.4254,0.15671
54.4304,0.15622
54.4354,0.15606
54.4404,0.15781
54.4454,0.15748
54.4504,0.15781
54.4554,0.15803
54.4604,0.15764
54.4654,0.1569
54.4704,0.15677
54.4754,0.15585
54.4804,0.15664
54.4854,0.15715
54.4904,0.15735
54.4954,0.15678
54.5004,0.15658
54.5054,0.15644
54.5104,0.15588
54.5154,0.15767
54.5204,0.15769
54.5254,0.15675
54.5304,0.15668
54.5354,0.15726
54.5404,0.15846
54.5454,0.15806
54.5504,0.15839
54.5554,0.15903
54.5604,0.15874
54.5654,0.15963
54.5704,0.15785
54.5754,0.15677
54.5804,0.15769
54.5854,0.15851
54.5904,0.15745
54.5954,0.15669
54.6004,0.15646
54.6054,0.15558
54.6104,0.15457
54.6154,0.15414
54.6204,0.1537
54.6254,0.15601
54.6304,0.15645
54.6354,0.15587
54.6404,0.15695
54.6454,0.15613
54.6504,0.1557
54.6554,0.15535
54.6604,0.15484
54.6654,0.1558
54.6704,0.15792
54.6754,0.15898
54.6804,0.15799
54.6854,0.15804
54.6904,0.15865
54.6954,0.15826
54.7004,0.15807
54.7054,0.15762
54.7104,0.15816
54.7154,0.15945
54.7204,0.15955
54.7254,0.1586
54.7304,0.15768
54.7354,0.15655
54.7404,0.15679
54.7454,0.1579
54.7504,0.15725
54.7554,0.15729
54.7604,0.15704
54.7654,0.15784
54.7704,0.15693
54.7754,0.15615
54.7804,0.15666
54.7854,0.15784
54.7904,0.15884
54.7954,0.15878
54.8004,0.15698
54.8054,0.15551
54.8104,0.15532
54.8154,0.1566
54.8204,0.15478
54.8254,0.15503
54.8304,0.15591
54.8354,0.15531
54.8404,0.15419
54.8454,0.15498
54.8504,0.1554
54.8554,0.15615
54.8604,0.15739
54.8654,0.15826
54.8704,0.15684
54.8754,0.15726
54.8804,0.15799
54.8854,0.15749
54.8904,0.15726
54.8954,0.15833
54.9004,0.15805
54.9054,0.15794
54.9104,0.15843
54.9154,0.15959
54.9204,0.15864
54.9254,0.15883
54.9304,0.1619
54.9354,0.16212
54.9404,0.16149
54.9454,0.1618
54.9504,0.16071
54.9554,0.15928
54.9604,0.15821
54.9654,0.15761
54.9704,0.15629
54.9754,0.1568
54.9804,0.15796
54.9854,0.15559
54.9904,0.15493
54.9954,0.15555
55.0004,0.15584
55.0054,0.15608
55.0104,0.15617
55.0154,0.15682
55.0204,0.1568
55.0254,0.15688
55.0304,0.15749
55.0354,0.15718
55.0404,0.15811
55.0454,0.15929
55.0504,0.15898
55.0554,0.15861
55.0604,0.15906
55.0654,0.1602
55.0704,0.16087
55.0754,0.15965
55.0804,0.16026
55.0854,0.16109
55.0904,0.16217
55.0954,0.16073
55.1004,0.15926
55.1054,0.15931
55.1104,0.15962
55.1154,0.15974
55.1204,0.15949
55.1254,0.15886
55.1304,0.16038
55.1354,0.16024
55.1404,0.15944
55.1454,0.1583
55.1504,0.1589
55.1554,0.15905
55.1604,0.15876
55.1654,0.15805
55.1704,0.15694
55.1754,0.15727
55.1804,0.15832
55.1854,0.15801
55.1904,0.15833
55.1954,0.15741
55.2004,0.15761
55.2054,0.15715
55.2104,0.1586
55.2154,0.16014
55.2204,0.16126
55.2254,0.16184
55.2304,0.16115
55.2354,0.15973
55.2404,0.15993
55.2454,0.15966
55.2504,0.16002
55.2554,0.15894
55.2604,0.1591
55.2654,0.15879
55.2704,0.15874
55.2754,0.15829
55.2804,0.15891
55.2854,0.15955
55.2904,0.15965
55.2954,0.1578
55.3004,0.15721
55.3054,0.15683
55.3104,0.15642
55.3154,0.15624
55.3204,0.15547
55.3254,0.15369
55.3304,0.15443
55.3354,0.15497
55.3404,0.15524
55.3454,0.15528
55.3504,0.15703
55.3554,0.15774
55.3604,0.15797
55.3654,0.15972
55.3704,0.1593
55.3754,0.15824
55.3804,0.15844
55.3854,0.15666
55.3904,0.15581
55.3954,0.15636
55.4004,0.15732
55.4054,0.15648
55.4104,0.15626
55.4154,0.15798
55.4204,0.15775
55.4254,0.1597
55.4304,0.16114
55.4354,0.16195
55.4404,0.16328
55.4454,0.16326
55.4504,0.16244
55.4554,0.1623
55.4604,0.16291
55.4654,0.1633
55.4704,0.16351
55.4754,0.16314
55.4804,0.1623
55.4854,0.16145
55.4904,0.16041
55.4954,0.16037
55.5004,0.16029
55.5054,0.16015
55.5104,0.16078
55.5154,0.16137
55.5204,0.16027
55.5254,0.15848
55.5304,0.15801
55.5354,0.15758
55.5404,0.15838
55.5454,0.16078
55.5504,0.16077
55.5554,0.16018
55.5604,0.15962
55.5654,0.1602
55.5704,0.16002
55.5754,0.16211
55.5804,0.16281
55.5854,0.16398
55.5904,0.16525
55.5954,0.16651
55.6004,0.16455
55.6054,0.16345
55.6104,0.16406
55.6154,0.16408
55.6204,0.16251
55.6254,0.16223
55.6304,0.16102
55.6354,0.16072
55.6404,0.16001
55.6454,0.15895
55.6504,0.15701
55.6554,0.15665
55.6604,0.15629
55.6654,0.15567
55.6704,0.15608
55.6754,0.15444
55.6804,0.15434
55.6854,0.15473
55.6904,0.15533
55.6954,0.15587
55.7004,0.15595
55.7054,0.15639
55.7104,0.15652
55.7154,0.15716
55.7204,0.1581
55.7254,0.15854
55.7304,0.16126
55.7354,0.16194
55.7404,0.16267
55.7454,0.16186
55.7504,0.16077
55.7554,0.15996
55.7604,0.15922
55.7654,0.16018
55.7704,0.16065
55.7754,0.16015
55.7804,0.15919
55.7854,0.15731
55.7904,0.15709
55.7954,0.15528
55.8004,0.15576
55.8054,0.15569
55.8104,0.15724
55.8154,0.15866
55.8204,0.15772
55.8254,0.15756
55.8304,0.15754
55.8354,0.15838
55.8404,0.15904
55.8454,0.15783
55.8504,0.15739
55.8554,0.1566
55.8604,0.15713
55.8654,0.15646
55.8704,0.15503
55.8754,0.15514
55.8804,0.15565
55.8854,0.1559
55.8904,0.15528
55.8954,0.15489
55.9004,0.15581
55.9054,0.15691
55.9104,0.15856
55.9154,0.15922
55.9204,0.1593
55.9254,0.16034
55.9304,0.16015
55.9354,0.15949
55.9404,0.1594
55.9454,0.16085
55.9504,0.16263
55.9554,0.16283
55.9604,0.16263
55.9654,0.16159
55.9704,0.16137
55.9754,0.16054
55.9804,0.15955
55.9854,0.16015
55.9904,0.16018
55.9954,0.16014
56.0004,0.15818
56.0054,0.15753
56.0104,0.15774
56.0154,0.15894
56.0204,0.15851
56.0254,0.1575
56.0304,0.15732
56.0354,0.15772
56.0404,0.15791
56.0454,0.15881
56.0504,0.15928
56.0554,0.15934
56.0604,0.15745
56.0654,0.15613
56.0704,0.15516
56.0754,0.15544
56.0804,0.15697
56.0854,0.15844
56.0904,0.15863
56.0954,0.15749
56.1004,0.15511
56.1054,0.15392
56.1104,0.1545
56.1154,0.15645
56.1204,0.15755
56.1254,0.15671
56.1304,0.15662
56.1354,0.15625
56.1404,0.15423
56.1454,0.15443
56.1504,0.1553
56.1554,0.1572
56.1604,0.15794
56.1654,0.15885
56.1704,0.15795
56.1754,0.15827
56.1804,0.15939
56.1854,0.16035
56.1904,0.16061
56.1954,0.16268
56.2004,0.16252
56.2054,0.16107
56.2104,0.16108
56.2154,0.16013
56.2204,0.15995
56.2254,0.16018
56.2304,0.15964
56.2354,0.15914
56.2404,0.15754
56.2454,0.15675
56.2504,0.15475
56.2554,0.15396
56.2604,0.15494
56.2654,0.15511
56.2704,0.15554
56.2754,0.15504
56.2804,0.15563
56.2854,0.15594
56.2904,0.15617
56.2954,0.1569
56.3004,0.15667
56.3054,0.15785
56.3104,0.15789
56.3154,0.15842
56.3204,0.15774
56.3254,0.15864
56.3304,0.15801
56.3354,0.15732
56.3404,0.1565
56.3454,0.1556
56.3504,0.15602
56.3554,0.1549
56.3604,0.15442
56.3654,0.15591
56.3704,0.15546
56.3754,0.15445
56.3804,0.15502
56.3854,0.1563
56.3904,0.15672
56.3954,0.15816
56.4004,0.15768
56.4054,0.15628
56.4104,0.15755
56.4154,0.15825
56.4204,0.15784
56.4254,0.15762
56.4304,0.15856
56.4354,0.15791
56.4404,0.15674
56.4454,0.15593
56.4504,0.15411
56.4554,0.15427
56.4604,0.15503
56.4654,0.1561
56.4704,0.15598
56.4754,0.15483
56.4804,0.15572
56.4854,0.156
56.4904,0.15542
56.4954,0.15511
56.5004,0.15562
56.5054,0.15593
56.5104,0.1563
56.5154,0.15574
56.5204,0.15478
56.5254,0.15519
56.5304,0.15587
56.5354,0.15588
56.5404,0.15579
56.5454,0.15653
56.5504,0.15769
56.5554,0.15786
56.5604,0.1582
56.5654,0.1594
56.5704,0.16102
56.5754,0.16031
56.5804,0.15917
56.5854,0.15838
56.5904,0.15726
56.5954,0.15724
56.6004,0.15669
56.6054,0.15573
56.6104,0.15679
56.6154,0.15663
56.6204,0.15556
56.6254,0.15484
56.6304,0.15579
56.6354,0.15712
56.6404,0.15891
56.6454,0.16064
56.6504,0.16064
56.6554,0.16035
56.6604,0.16078
56.6654,0.15946
56.6704,0.15963
56.6754,0.15861
56.6804,0.15793
56.6854,0.15758
56.6904,0.15759
56.6954,0.15696
56.7004,0.15473
56.7054,0.1543
56.7104,0.15449
56.7154,0.15503
56.7204,0.15471
56.7254,0.15514
56.7304,0.157
56.7354,0.15714
56.7404,0.157
56.7454,0.15644
56.7504,0.15613
56.7554,0.15784
56.7604,0.15819
56.7654,0.15887
56.7704,0.15745
56.7754,0.15769
56.7804,0.15818
56.7854,0.15784
56.7904,0.15844
56.7954,0.15929
56.8004,0.15773
56.8054,0.15673
56.8104,0.15684
56.8154,0.15709
56.8204,0.15639
56.8254,0.15743
56.8304,0.15788
56.8354,0.15784
56.8404,0.15874
56.8454,0.1594
56.8504,0.15855
56.8554,0.15911
56.8604,0.1601
56.8654,0.15981
56.8704,0.1603
56.8754,0.16121
56.8804,0.16133
56.8854,0.1607
56.8904,0.1599
56.8954,0.15995
56.9004,0.15814
56.9054,0.15672
56.9104,0.1568
56.9154,0.15659
56.9204,0.15556
56.9254,0.15515
56.9304,0.15479
56.9354,0.15449
56.9404,0.1547
56.9454,0.15589
56.9504,0.15563
56.9554,0.15554
56.9604,0.15661
56.9654,0.15729
56.9704,0.15708
56.9754,0.15777
56.9804,0.15812
56.9854,0.15695
56.9904,0.15668
56.9954,0.15677
57.0004,0.15502
57.0054,0.15375
57.0104,0.15571
57.0154,0.15807
57.0204,0.15896
57.0254,0.15893
57.0304,0.15843
57.0354,0.1582
57.0404,0.15937
57.0454,0.1609
57.0504,0.16108
57.0554,0.16074
57.0604,0.16114
57.0654,0.16014
57.0704,0.1583
57.0754,0.15672
57.0804,0.15727
57.0854,0.15785
57.0904,0.15813
57.0954,0.15748
57.1004,0.15627
57.1054,0.1557
57.1104,0.15725
57.1154,0.15774
57.1204,0.15762
57.1254,0.15652
57.1304,0.15644
57.1354,0.15797
57.1404,0.15937
57.1454,0.15905
57.1504,0.15974
57.1554,0.16001
57.1604,0.15968
57.1654,0.15968
57.1704,0.1598
57.1754,0.16008
57.1804,0.16175
57.1854,0.16177
57.1904,0.16014
57.1954,0.15845
57.2004,0.15767
57.2054,0.15667
57.2104,0.15631
57.2154,0.15706
57.2204,0.15704
57.2254,0.15602
57.2304,0.15588
57.2354,0.15516
57.2404,0.15611
57.2454,0.15667
57.2504,0.15724
57.2554,0.15759
57.2604,0.15715
57.2654,0.15669
57.2704,0.15639
57.2754,0.15674
57.2804,0.15819
57.2854,0.15863
57.2904,0.15856
57.2954,0.15855
57.3004,0.15986
57.3054,0.16015
57.3104,0.15963
57.3154,0.16122
57.3204,0.16139
57.3254,0.16123
57.3304,0.15877
57.3354,0.15746
57.3404,0.15773
57.3454,0.1587
57.3504,0.15873
57.3554,0.1569
57.3604,0.15599
57.3654,0.15577
57.3704,0.15514
57.3754,0.15449
57.3804,0.15479
57.3854,0.15673
57.3904,0.15722
57.3954,0.15553
57.4004,0.15411
57.4054,0.15411
57.4104,0.15469
57.4154,0.15589
57.4204,0.15611
57.4254,0.15641
57.4304,0.15731
57.4354,0.15729
57.4404,0.15701
57.4454,0.15696
57.4504,0.15773
57.4554,0.15871
57.4604,0.15902
57.4654,0.15876
57.4704,0.15849
57.4754,0.15927
57.4804,0.15963
57.4854,0.16086
57.4904,0.16156
57.4954,0.16185
57.5004,0.16254
57.5054,0.16203
57.5104,0.16195
57.5154,0.16233
57.5204,0.16292
57.5254,0.16239
57.5304,0.16191
57.5354,0.16206
57.5404,0.16193
57.5454,0.1609
57.5504,0.16074
57.5554,0.16025
57.5604,0.16072
57.5654,0.16154
57.5704,0.16059
57.5754,0.15947
57.5804,0.15917
57.5854,0.16007
57.5904,0.16004
57.5954,0.15867
57.6004,0.15832
57.6054,0.15794
57.6104,0.15727
57.6154,0.1575
57.6204,0.15653
57.6254,0.15605
57.6304,0.15664
57.6354,0.15761
57.6404,0.157
57.6454,0.15599
57.6504,0.15628
57.6554,0.15702
57.6604,0.15648
57.6654,0.15657
57.6704,0.15541
57.6754,0.15453
57.6804,0.15551
57.6854,0.15511
57.6904,0.15485
57.6954,0.15521
57.7004,0.15512
57.7054,0.15497
57.7104,0.15674
57.7154,0.1586
57.7204,0.1599
57.7254,0.16101
57.7304,0.16204
57.7354,0.1619
57.7404,0.16213
57.7454,0.16231
57.7504,0.16258
57.7554,0.16228
57.7604,0.16223
57.7654,0.15999
57.7704,0.15886
57.7754,0.15663
57.7804,0.1565
57.7854,0.15628
57.7904,0.15638
57.7954,0.15651
57.8004,0.15532
57.8054,0.1536
57.8104,0.15448
57.8154,0.15571
57.8204,0.15601
57.8254,0.15575
57.8304,0.15737
57.8354,0.15804
57.8404,0.15828
57.8454,0.15736
57.8504,0.15632
57.8554,0.15614
57.8604,0.15787
57.8654,0.15836
57.8704,0.1574
57.8754,0.15756
57.8804,0.15792
57.8854,0.15732
57.8904,0.15693
57.8954,0.15732
57.9004,0.15788
57.9054,0.15873
57.9104,0.16015
57.9154,0.16039
57.9204,0.1605
57.9254,0.16068
57.9304,0.16013
57.9354,0.16065
57.9404,0.16165
57.9454,0.16107
57.9504,0.16038
57.9554,0.16001
57.9604,0.15872
57.9654,0.15826
57.9704,0.15798
57.9754,0.15741
57.9804,0.15753
57.9854,0.15862
57.9904,0.15769
57.9954,0.15686
58.0004,0.15807
58.0054,0.15709
58.0104,0.15767
58.0154,0.15879
58.0204,0.15727
58.0254,0.15562
58.0304,0.156
58.0354,0.15602
58.0404,0.15516
58.0454,0.1558
58.0504,0.15624
58.0554,0.15482
58.0604,0.15575
58.0654,0.15642
58.0704,0.15641
58.0754,0.15697
58.0804,0.1598
58.0854,0.15977
58.0904,0.15952
58.0954,0.1597
58.1004,0.15972
58.1054,0.15937
58.1104,0.16038
58.1154,0.1607
58.1204,0.15944
58.1254,0.15856
58.1304,0.15942
58.1354,0.15708
58.1404,0.15723
58.1454,0.15844
58.1504,0.15934
58.1554,0.15845
58.1604,0.15859
58.1654,0.15834
58.1704,0.15809
58.1754,0.15861
58.1804,0.15926
58.1854,0.15876
58.1904,0.15889
58.1954,0.15804
58.2004,0.15674
58.2054,0.1568
58.2104,0.15818
58.2154,0.1584
58.2204,0.15813
58.2254,0.15888
58.2304,0.15945
58.2354,0.16018
58.2404,0.16091
58.2454,0.16127
58.2504,0.16157
58.2554,0.16132
58.2604,0.16062
58.2654,0.15964
58.2704,0.15904
58.2754,0.15877
58.2804,0.15834
58.2854,0.15849
58.2904,0.15803
58.2954,0.15769
58.3004,0.15736
58.3054,0.15681
58.3104,0.15734
58.3154,0.15643
58.3204,0.15583
58.3254,0.1556
58.3304,0.15547
58.3354,0.15516
58.3404,0.15459
58.3454,0.15551
58.3504,0.15537
58.3554,0.15557
58.3604,0.1554
58.3654,0.15484
58.3704,0.15627
58.3754,0.15645
58.3804,0.1566
58.3854,0.15827
58.3904,0.15963
58.3954,0.16034
58.4004,0.15986
58.4054,0.16043
58.4104,0.16068
58.4154,0.16178
58.4204,0.16272
58.4254,0.16295
58.4304,0.16374
58.4354,0.16457
58.4404,0.16358
58.4454,0.16281
58.4504,0.16173
58.4554,0.16038
58.4604,0.15998
58.4654,0.1604
58.4704,0.15961
58.4754,0.15771
58.4804,0.15663
58.4854,0.15589
58.4904,0.15603
58.4954,0.15645
58.5004,0.15591
58.5054,0.15564
58.5104,0.15574
58.5154,0.15543
58.5204,0.15538
58.5254,0.15549
58.5304,0.15635
58.5354,0.15695
58.5404,0.15782
58.5454,0.15803
58.5504,0.15916
58.5554,0.15932
58.5604,0.15904
58.5654,0.16117
58.5704,0.15999
58.5754,0.15891
58.5804,0.16006
58.5854,0.16098
58.5904,0.16145
58.5954,0.1611
58.6004,0.16024
58.6054,0.15855
58.6104,0.15901
58.6154,0.16032
58.6204,0.1582
58.6254,0.15906
58.6304,0.15977
58.6354,0.15852
58.6404,0.15703
58.6454,0.15624
58.6504,0.15677
58.6554,0.15572
58.6604,0.1558
58.6654,0.15542
58.6704,0.15457
58.6754,0.15463
58.6804,0.15604
58.6854,0.15593
58.6904,0.155
58.6954,0.15576
58.7004,0.15525
58.7054,0.15435
58.7104,0.1556
58.7154,0.15611
58.7204,0.15692
58.7254,0.15739
58.7304,0.15795
58.7354,0.15756
58.7404,0.15807
58.7454,0.15813
58.7504,0.15829
58.7554,0.15807
58.7604,0.15804
58.7654,0.15852
58.7704,0.15847
58.7754,0.1587
58.7804,0.15792
58.7854,0.15758
58.7904,0.15718
58.7954,0.15692
58.8004,0.15845
58.8054,0.15813
58.8104,0.15896
58.8154,0.15938
58.8204,0.15835
58.8254,0.15776
58.8304,0.15775
58.8354,0.15913
58.8404,0.16043
58.8454,0.16102
58.8504,0.16085
58.8554,0.15998
58.8604,0.16079
58.8654,0.16192
58.8704,0.16227
58.8754,0.16201
58.8804,0.16197
58.8854,0.16155
58.8904,0.16198
58.8954,0.16143
58.9004,0.16081
58.9054,0.16038
58.9104,0.16026
58.9154,0.15886
58.9204,0.15717
58.9254,0.1571
58.9304,0.15772
58.9354,0.15665
58.9404,0.15529
58.9454,0.15426
58.9504,0.15472
58.9554,0.15428
58.9604,0.15442
58.9654,0.15546
58.9704,0.15709
58.9754,0.15747
58.9804,0.15692
58.9854,0.15697
58.9904,0.15939
58.9954,0.15999
59.0004,0.15982
59.0054,0.15944
59.0104,0.15987
59.0154,0.15967
59.0204,0.15909
59.0254,0.1589
59.0304,0.15929
59.0354,0.1592
59.0404,0.15907
59.0454,0.15793
59.0504,0.15807
59.0554,0.15768
59.0604,0.15658
59.0654,0.15633
59.0704,0.15666
59.0754,0.15641
59.0804,0.15574
59.0854,0.15524
59.0904,0.15543
59.0954,0.15563
59.1004,0.15537
59.1054,0.15578
59.1104,0.15694
59.1154,0.15795
59.1204,0.1581
59.1254,0.15676
59.1304,0.15677
59.1354,0.15688
59.1404,0.15779
59.1454,0.15812
59.1504,0.15807
59.1554,0.15815
59.1604,0.15841
59.1654,0.15732
59.1704,0.15573
59.1754,0.15458
59.1804,0.15651
59.1854,0.15662
59.1904,0.15684
59.1954,0.15591
59.2004,0.15545
59.2054,0.15516
59.2104,0.15497
59.2154,0.15435
59.2204,0.155
59.2254,0.15568
59.2304,0.15667
59.2354,0.15564
59.2404,0.15553
59.2454,0.15623
59.2504,0.15811
59.2554,0.15786
59.2604,0.15665
59.2654,0.15705
59.2704,0.15685
59.2754,0.15645
59.2804,0.15764
59.2854,0.15771
59.2904,0.15725
59.2954,0.15806
59.3004,0.15761
59.3054,0.15626
59.3104,0.1574
59.3154,0.15902
59.3204,0.15899
59.3254,0.15967
59.3304,0.15971
59.3354,0.15916
59.3404,0.16013
59.3454,0.16205
59.3504,0.16201
59.3554,0.16151
59.3604,0.16024
59.3654,0.15901
59.3704,0.15909
59.3754,0.15892
59.3804,0.15868
59.3854,0.15932
59.3904,0.1591
59.3954,0.15934
59.4004,0.1583
59.4054,0.15813
59.4104,0.15775
59.4154,0.15868
59.4204,0.1594
59.4254,0.15902
59.4304,0.15888
59.4354,0.15874
59.4404,0.15858
59.4454,0.15888
59.4504,0.15843
59.4554,0.15816
59.4604,0.15731
59.4654,0.1574
59.4704,0.1572
59.4754,0.15792
59.4804,0.15843
59.4854,0.15873
59.4904,0.15902
59.4954,0.1587
59.5004,0.1581
59.5054,0.15608
59.5104,0.15538
59.5154,0.15525
59.5204,0.156
59.5254,0.15538
59.5304,0.15369
59.5354,0.15398
59.5404,0.15558
59.5454,0.15621
59.5504,0.157
59.5554,0.15784
59.5604,0.15898
59.5654,0.16047
59.5704,0.16025
59.5754,0.15976
59.5804,0.1602
59.5854,0.16043
59.5904,0.15899
59.5954,0.15816
59.6004,0.15729
59.6054,0.15544
59.6104,0.15501
59.6154,0.15542
59.6204,0.15486
59.6254,0.15564
59.6304,0.15618
59.6354,0.15577
59.6404,0.15654
59.6454,0.15757
59.6504,0.15595
59.6554,0.15597
59.6604,0.1564
59.6654,0.15785
59.6704,0.15746
59.6754,0.15794
59.6804,0.15907
59.6854,0.15988
59.6904,0.16138
59.6954,0.16117
59.7004,0.1604
59.7054,0.15977
59.7104,0.16006
59.7154,0.16132
59.7204,0.16072
59.7254,0.16075
59.7304,0.16043
59.7354,0.15951
59.7404,0.1579
59.7454,0.15768
59.7504,0.15719
59.7554,0.15664
59.7604,0.1567
59.7654,0.15588
59.7704,0.15495
59.7754,0.15408
59.7804,0.15441
59.7854,0.15564
59.7904,0.15536
59.7954,0.15609
59.8004,0.15558
59.8054,0.15599
59.8104,0.15726
59.8154,0.15938
59.8204,0.15974
59.8254,0.15964
59.8304,0.16004
59.8354,0.15993
59.8404,0.15893
59.8454,0.15972
59.8504,0.15949
59.8554,0.15903
59.8604,0.15804
59.8654,0.157
59.8704,0.15513
59.8754,0.15479
59.8804,0.15538
59.8854,0.15543
59.8904,0.15642
59.8954,0.15687
59.9004,0.15547
59.9054,0.15547
59.9104,0.15664
59.9154,0.1581
59.9204,0.1589
59.9254,0.1601
59.9304,0.1601
59.9354,0.1602
59.9404,0.15976
59.9454,0.15879
59.9504,0.15878
59.9554,0.15914
59.9604,0.15912
59.9654,0.15924
59.9704,0.16017
59.9754,0.16013
59.9804,0.15995
59.9854,0.16047
59.9904,0.16078
59.9954,0.16036
60.0004,0.16012
60.0054,0.15907
60.0104,0.15895
60.0154,0.15979
60.0204,0.16002
60.0254,0.15873
60.0304,0.15857
60.0354,0.15929
60.0404,0.15984
60.0454,0.15928
60.0504,0.16032
60.0554,0.16006
60.0604,0.1609
60.0654,0.16319
60.0704,0.16299
60.0754,0.16103
60.0804,0.16119
60.0854,0.16151
60.0904,0.162
60.0954,0.16212
60.1004,0.16255
60.1054,0.16157
60.1104,0.16198
60.1154,0.16056
60.1204,0.15867
60.1254,0.15845
60.1304,0.15955
60.1354,0.15918
60.1404,0.16034
60.1454,0.15887
60.1504,0.15701
60.1554,0.15563
60.1604,0.15548
60.1654,0.15477
60.1704,0.15569
60.1754,0.15587
60.1804,0.15528
60.1854,0.15552
60.1904,0.1567
60.1954,0.15453
60.2004,0.15384
60.2054,0.1545
60.2104,0.15594
60.2154,0.15673
60.2204,0.15782
60.2254,0.15754
60.2304,0.15757
60.2354,0.15775
60.2404,0.15763
60.2454,0.15661
60.2504,0.15759
60.2554,0.15792
60.2604,0.15746
60.2654,0.15603
60.2704,0.15533
60.2754,0.15511
60.2804,0.15584
60.2854,0.15603
60.2904,0.15645
60.2954,0.1571
60.3004,0.15807
60.3054,0.15774
60.3104,0.15926
60.3154,0.1609
60.3204,0.16253
60.3254,0.16374
60.3304,0.16337
60.3354,0.16372
60.3404,0.16495
60.3454,0.16547
60.3504,0.16416
60.3554,0.16352
60.3604,0.16409
60.3654,0.16383
60.3704,0.16272
60.3754,0.16197
60.3804,0.16165
60.3854,0.16235
60.3904,0.16238
60.3954,0.16163
60.4004,0.16058
60.4054,0.16073
60.4104,0.16022
60.4154,0.16038
60.4204,0.15963
60.4254,0.15882
60.4304,0.15764
60.4354,0.15691
60.4404,0.15666
60.4454,0.1565
60.4504,0.15685
60.4554,0.15688
60.4604,0.15687
60.4654,0.15577
60.4704,0.15491
60.4754,0.15508
60.4804,0.15585
60.4854,0.15725
60.4904,0.15734
60.4954,0.15716
60.5004,0.15608
60.5054,0.15404
60.5104,0.15373
60.5154,0.15414
60.5204,0.15605
60.5254,0.15626
60.5304,0.15563
60.5354,0.15641
60.5404,0.15653
60.5454,0.15631
60.5504,0.15732
60.5554,0.15838
60.5604,0.15975
60.5654,0.16097
60.5704,0.16083
60.5754,0.16042
60.5804,0.16073
60.5854,0.16063
60.5904,0.15998
60.5954,0.15981
60.6004,0.15928
60.6054,0.15844
60.6104,0.15846
60.6154,0.15864
60.6204,0.15761
60.6254,0.15784
60.6304,0.15756
60.6354,0.15769
60.6404,0.15892
60.6454,0.16016
60.6504,0.16127
60.6554,0.16265
60.6604,0.16262
60.6654,0.16239
60.6704,0.16159
60.6754,0.16181
60.6804,0.16286
60.6854,0.16255
60.6904,0.16174
60.6954,0.16184
60.7004,0.16048
60.7054,0.15852
60.7104,0.15805
60.7154,0.15907
60.7204,0.15963
60.7254,0.15984
60.7304,0.15968
60.7354,0.15765
60.7404,0.15857
60.7454,0.15958
60.7504,0.15979
60.7554,0.16045
60.7604,0.16123
60.7654,0.16203
60.7704,0.16054
60.7754,0.15951
60.7804,0.16001
60.7854,0.16053
60.7904,0.16152
60.7954,0.16168
60.8004,0.16179
60.8054,0.16021
60.8104,0.15889
60.8154,0.15863
60.8204,0.15716
60.8254,0.15718
60.8304,0.15753
60.8354,0.15767
60.8404,0.15638
60.8454,0.15587
60.8504,0.15526
60.8554,0.1544
60.8604,0.15506
60.8654,0.1561
60.8704,0.15577
60.8754,0.15561
60.8804,0.15669
60.8854,0.15735
60.8904,0.157
60.8954,0.15814
60.9004,0.1583
60.9054,0.1573
60.9104,0.15746
60.9154,0.15634
60.9204,0.15609
60.9254,0.15613
60.9304,0.15827
60.9354,0.15791
60.9404,0.15709
60.9454,0.15772
60.9504,0.15719
60.9554,0.15646
60.9604,0.15649
60.9654,0.15644
60.9704,0.15782
60.9754,0.15692
60.9804,0.15712
60.9854,0.15679
60.9904,0.15659
60.9954,0.15617
61.0004,0.15481
61.0054,0.15423
61.0104,0.15538
61.0154,0.15689
61.0204,0.15563
61.0254,0.15567
61.0304,0.15741
61.0354,0.15664
61.0404,0.15485
61.0454,0.15523
61.0504,0.15599
61.0554,0.15472
61.0604,0.15572
61.0654,0.1556
61.0704,0.15433
61.0754,0.15567
61.0804,0.15567
61.0854,0.15476
61.0904,0.15558
61.0954,0.15694
61.1004,0.15665
61.1054,0.1561
61.1104,0.15743
61.1154,0.1568
61.1204,0.15613
61.1254,0.15663
61.1304,0.15631
61.1354,0.15721
61.1404,0.15811
61.1454,0.15836
61.1504,0.15866
61.1554,0.15906
61.1604,0.15966
61.1654,0.1612
61.1704,0.16134
61.1754,0.16138
61.1804,0.1617
61.1854,0.16163
61.1904,0.16089
61.1954,0.16093
61.2004,0.16004
61.2054,0.15816
61.2104,0.15655
61.2154,0.15562
61.2204,0.15516
61.2254,0.15628
61.2304,0.15669
61.2354,0.15694
61.2404,0.15874
61.2454,0.15947
61.2504,0.15937
61.2554,0.15957
61.2604,0.16029
61.2654,0.16186
61.2704,0.16176
61.2754,0.16115
61.2804,0.16104
61.2854,0.16145
61.2904,0.16011
61.2954,0.1588
61.3004,0.15801
61.3054,0.156
61.3104,0.15605
61.3154,0.15634
61.3204,0.15475
61.3254,0.1555
61.3304,0.15574
61.3354,0.15536
61.3404,0.15515
61.3454,0.15644
61.3504,0.157
61.3554,0.15656
61.3604,0.1582
61.3654,0.16014
61.3704,0.16038
61.3754,0.16094
61.3804,0.16051
61.3854,0.16008
61.3904,0.16053
61.3954,0.15985
61.4004,0.15998
61.4054,0.15907
61.4104,0.15993
61.4154,0.15986
61.4204,0.15791
61.4254,0.15732
61.4304,0.15783
61.4354,0.15822
61.4404,0.15865
61.4454,0.15843
61.4504,0.1587
61.4554,0.15804
61.4604,0.15702
61.4654,0.15627
61.4704,0.15615
61.4754,0.15597
61.4804,0.15693
61.4854,0.15689
61.4904,0.15738
61.4954,0.15784
61.5004,0.15744
61.5054,0.15816
61.5104,0.15865
61.5154,0.16019
61.5204,0.16002
61.5254,0.16062
61.5304,0.16174
61.5354,0.16123
61.5404,0.1614
61.5454,0.16116
61.5504,0.16089
61.5554,0.1611
61.5604,0.16081
61.5654,0.15914
61.5704,0.15862
61.5754,0.15919
61.5804,0.15851
61.5854,0.15798
61.5904,0.1581
61.5954,0.15844
61.6004,0.15786
61.6054,0.15799
61.6104,0.15741
61.6154,0.15718
61.6204,0.15968
61.6254,0.16019
61.6304,0.16097
61.6354,0.16027
61.6404,0.16049
61.6454,0.1606
61.6504,0.16099
61.6554,0.16054
61.6604,0.15956
61.6654,0.16026
61.6704,0.15998
61.6754,0.15895
61.6804,0.15955
61.6854,0.15816
61.6904,0.15825
61.6954,0.15766
61.7004,0.15747
61.7054,0.15725
61.7104,0.15774
61.7154,0.15855
61.7204,0.15862
61.7254,0.15803
61.7304,0.15902
61.7354,0.15985
61.7404,0.16023
61.7454,0.16102
61.7504,0.16142
61.7554,0.16092
61.7604,0.15944
61.7654,0.16061
61.7704,0.16053
61.7754,0.15952
61.7804,0.16085
61.7854,0.15989
61.7904,0.15844
61.7954,0.1585
61.8004,0.15834
61.8054,0.15853
61.8104,0.15959
61.8154,0.1602
61.8204,0.15853
61.8254,0.15834
61.8304,0.16009
61.8354,0.16115
61.8404,0.16152
61.8454,0.16132
61.8504,0.16144
61.8554,0.16312
61.8604,0.16364
61.8654,0.16298
61.8704,0.16424
61.8754,0.16565
61.8804,0.16637
61.8854,0.16615
61.8904,0.16502
61.8954,0.16467
61.9004,0.1642
61.9054,0.16342
61.9104,0.16166
61.9154,0.16236
61.9204,0.16295
61.9254,0.16245
61.9304,0.16256
61.9354,0.16197
61.9404,0.16027
61.9454,0.15942
61.9504,0.15894
61.9554,0.1593
61.9604,0.16015
61.9654,0.16118
61.9704,0.16025
61.9754,0.15937
61.9804,0.15953
61.9854,0.15874
61.9904,0.15855
61.9954,0.15936
62.0004,0.16077
62.0054,0.16066
62.0104,0.16059
62.0154,0.1602
62.0204,0.15986
62.0254,0.15967
62.0304,0.16012
62.0354,0.15945
62.0404,0.15934
62.0454,0.15935
62.0504,0.15959
62.0554,0.15883
62.0604,0.15931
62.0654,0.16021
62.0704,0.15894
62.0754,0.1575
62.0804,0.15843
62.0854,0.15915
62.0904,0.15899
62.0954,0.15885
62.1004,0.159
62.1054,0.15843
62.1104,0.15857
62.1154,0.15757
62.1204,0.15642
62.1254,0.15718
62.1304,0.15771
62.1354,0.15673
62.1404,0.15601
62.1454,0.15599
62.1504,0.15605
62.1554,0.15456
62.1604,0.1544
62.1654,0.1546
62.1704,0.15578
62.1754,0.1552
62.1804,0.1557
62.1854,0.15637
62.1904,0.1566
62.1954,0.15744
62.2004,0.15747
62.2054,0.15732
62.2104,0.15859
62.2154,0.15887
62.2204,0.1572
62.2254,0.15611
62.2304,0.15631
62.2354,0.15654
62.2404,0.15673
62.2454,0.15694
62.2504,0.15661
62.2554,0.15599
62.2604,0.15538
62.2654,0.15571
62.2704,0.1565
62.2754,0.15778
62.2804,0.15844
62.2854,0.15822
62.2904,0.15789
62.2954,0.15809
62.3004,0.15745
62.3054,0.15622
62.3104,0.15775
62.3154,0.1588
62.3204,0.15848
62.3254,0.15799
62.3304,0.1576
62.3354,0.15776
62.3404,0.1589
62.3454,0.16028
62.3504,0.16094
62.3554,0.16064
62.3604,0.16177
62.3654,0.16141
62.3704,0.16063
62.3754,0.15978
62.3804,0.15985
62.3854,0.1591
62.3904,0.15828
62.3954,0.15896
62.4004,0.15747
62.4054,0.15538
62.4104,0.15506
62.4154,0.15437
62.4204,0.15377
62.4254,0.15447
62.4304,0.15479
62.4354,0.15623
62.4404,0.15739
62.4454,0.15822
62.4504,0.15771
62.4554,0.15738
62.4604,0.15761
62.4654,0.15788
62.4704,0.15818
62.4754,0.15842
62.4804,0.15796
62.4854,0.15796
62.4904,0.15679
62.4954,0.15697
62.5004,0.15761
62.5054,0.15771
62.5104,0.15821
62.5154,0.15904
62.5204,0.16014
62.5254,0.15991
62.5304,0.15953
62.5354,0.15963
62.5404,0.16065
62.5454,0.16223
62.5504,0.16306
62.5554,0.16204
62.5604,0.16085
62.5654,0.16042
62.5704,0.15935
62.5754,0.15857
62.5804,0.15921
62.5854,0.15995
62.5904,0.16041
62.5954,0.15952
62.6004,0.15764
62.6054,0.15628
62.6104,0.15628
62.6154,0.15711
62.6204,0.15757
62.6254,0.15767
62.6304,0.15799
62.6354,0.15734
62.6404,0.15753
62.6454,0.15787
62.6504,0.15831
62.6554,0.15721
62.6604,0.15713
62.6654,0.15786
62.6704,0.15752
62.6754,0.15789
62.6804,0.15927
62.6854,0.15975
62.6904,0.16007
62.6954,0.15972
62.7004,0.15931
62.7054,0.15878
62.7104,0.16054
62.7154,0.16156
62.7204,0.16213
62.7254,0.162
62.7304,0.16168
62.7354,0.16092
62.7404,0.15938
62.7454,0.15948
62.7504,0.15896
62.7554,0.15761
62.7604,0.15768
62.7654,0.15718
62.7704,0.15673
62.7754,0.15547
62.7804,0.15646
62.7854,0.15713
62.7904,0.15704
62.7954,0.15937
62.8004,0.15947
62.8054,0.15957
62.8104,0.16054
62.8154,0.16243
62.8204,0.16327
62.8254,0.16308
62.8304,0.16387
62.8354,0.16316
62.8404,0.16305
62.8454,0.16407
62.8504,0.16225
62.8554,0.16229
62.8604,0.1628
62.8654,0.16351
62.8704,0.16177
62.8754,0.15994
62.8804,0.15847
62.8854,0.15811
62.8904,0.1583
62.8954,0.1575
62.9004,0.15667
62.9054,0.15624
62.9104,0.15582
62.9154,0.15541
62.9204,0.15418
62.9254,0.15423
62.9304,0.15472
62.9354,0.15538
62.9404,0.1562
62.9454,0.15657
62.9504,0.15715
62.9554,0.15771
62.9604,0.15874
62.9654,0.16029
62.9704,0.16045
62.9754,0.15973
62.9804,0.16023
62.9854,0.16122
62.9904,0.16126
62.9954,0.16096
63.0004,0.16064
63.0054,0.16084
63.0104,0.16114
63.0154,0.16202
63.0204,0.16147
63.0254,0.16103
63.0304,0.16327
63.0354,0.16303
63.0404,0.16165
63.0454,0.16276
63.0504,0.16286
63.0554,0.16236
63.0604,0.16183
63.0654,0.1618
63.0704,0.16065
63.0754,0.15966
63.0804,0.16114
63.0854,0.16132
63.0904,0.16122
63.0954,0.16176
63.1004,0.16123
63.1054,0.15967
63.1104,0.15978
63.1154,0.15896
63.1204,0.15762
63.1254,0.1576
63.1304,0.15812
63.1354,0.1571
63.1404,0.15814
63.1454,0.15887
63.1504,0.15943
63.1554,0.15854
63.1604,0.15881
63.1654,0.15959
63.1704,0.16015
63.1754,0.15989
63.1804,0.15962
63.1854,0.15866
63.1904,0.15955
63.1954,0.15827
63.2004,0.15748
63.2054,0.15663
63.2104,0.15766
63.2154,0.15771
63.2204,0.15717
63.2254,0.15617
63.2304,0.15622
63.2354,0.15588
63.2404,0.156
63.2454,0.15594
63.2504,0.15505
63.2554,0.15424
63.2604,0.15447
63.2654,0.15538
63.2704,0.15589
63.2754,0.15543
63.2804,0.15663
63.2854,0.157
63.2904,0.15831
63.2954,0.15926
63.3004,0.15844
63.3054,0.15835
63.3104,0.15917
63.3154,0.15973
63.3204,0.15857
63.3254,0.15863
63.3304,0.15894
63.3354,0.15948
63.3404,0.16021
63.3454,0.15957
63.3504,0.15992
63.3554,0.16027
63.3604,0.16114
63.3654,0.16156
63.3704,0.16168
63.3754,0.16217
63.3804,0.16288
63.3854,0.16404
63.3904,0.16406
63.3954,0.16428
63.4004,0.1645
63.4054,0.1634
63.4104,0.16406
63.4154,0.16381
63.4204,0.16396
63.4254,0.16357
63.4304,0.16373
63.4354,0.16417
63.4404,0.16349
63.4454,0.1635
63.4504,0.16303
63.4554,0.16267
63.4604,0.16265
63.4654,0.16271
63.4704,0.16338
63.4754,0.16376
63.4804,0.16434
63.4854,0.16441
63.4904,0.16412
63.4954,0.16384
63.5004,0.16381
63.5054,0.16344
63.5104,0.16377
63.5154,0.16488
63.5204,0.16439
63.5254,0.16384
63.5304,0.16295
63.5354,0.16294
63.5404,0.16281
63.5454,0.16259
63.5504,0.16219
63.5554,0.16103
63.5604,0.1607
63.5654,0.15982
63.5704,0.15959
63.5754,0.15972
63.5804,0.15975
63.5854,0.15968
63.5904,0.15889
63.5954,0.1583
63.6004,0.15737
63.6054,0.15814
63.6104,0.15874
63.6154,0.15895
63.6204,0.16017
63.6254,0.15979
63.6304,0.15942
63.6354,0.15913
63.6404,0.1593
63.6454,0.15899
63.6504,0.16
63.6554,0.16022
63.6604,0.15951
63.6654,0.16037
63.6704,0.16055
63.6754,0.1598
63.6804,0.15975
63.6854,0.15904
63.6904,0.15886
63.6954,0.15888
63.7004,0.15965
63.7054,0.15772
63.7104,0.1575
63.7154,0.15738
63.7204,0.15694
63.7254,0.15619
63.7304,0.15579
63.7354,0.15657
63.7404,0.15724
63.7454,0.15733
63.7504,0.15766
63.7554,0.1575
63.7604,0.15755
63.7654,0.15759
63.7704,0.15854
63.7754,0.15777
63.7804,0.15787
63.7854,0.15862
63.7904,0.1587
63.7954,0.15899
63.8004,0.15885
63.8054,0.15822
63.8104,0.15729
63.8154,0.15754
63.8204,0.15755
63.8254,0.15575
63.8304,0.15611
63.8354,0.15721
63.8404,0.15818
63.8454,0.15827
63.8504,0.15839
63.8554,0.1588
63.8604,0.15989
63.8654,0.16076
63.8704,0.16164
63.8754,0.16168
63.8804,0.1636
63.8854,0.16377
63.8904,0.16381
63.8954,0.16265
63.9004,0.1617
63.9054,0.16089
63.9104,0.16116
63.9154,0.1613
63.9204,0.16123
63.9254,0.16092
63.9304,0.16032
63.9354,0.1598
63.9404,0.16098
63.9454,0.16117
63.9504,0.16253
63.9554,0.16254
63.9604,0.16201
63.9654,0.16187
63.9704,0.16213
63.9754,0.16259
63.9804,0.16359
63.9854,0.16549
63.9904,0.16676
63.9954,0.16551
64.0004,0.1639
64.0054,0.16161
64.0104,0.16135
64.0154,0.16202
64.0204,0.16109
64.0254,0.15905
64.0304,0.15797
64.0354,0.15633
64.0404,0.15512
64.0454,0.15463
64.0504,0.15483
64.0554,0.15474
64.0604,0.15525
64.0654,0.1558
64.0704,0.15535
64.0754,0.15493
64.0804,0.15594
64.0854,0.1567
64.0904,0.15742
64.0954,0.15729
64.1004,0.15663
64.1054,0.15598
64.1104,0.15702
64.1154,0.15765
64.1204,0.15654
64.1254,0.15682
64.1304,0.15751
64.1354,0.1568
64.1404,0.15687
64.1454,0.15742
64.1504,0.15795
64.1554,0.15709
64.1604,0.15628
64.1654,0.15627
64.1704,0.15663
64.1754,0.15804
64.1804,0.15882
64.1854,0.15836
64.1904,0.15952
64.1954,0.16005
64.2004,0.15904
64.2054,0.15892
64.2104,0.16033
64.2154,0.16266
64.2204,0.16391
64.2254,0.16318
64.2304,0.16276
64.2354,0.16196
64.2404,0.16262
64.2454,0.16151
64.2504,0.16062
64.2554,0.16057
64.2604,0.15927
64.2654,0.15795
64.2704,0.15547
64.2754,0.15472
64.2804,0.15472
64.2854,0.1544
64.2904,0.15559
64.2954,0.1554
64.3004,0.15527
64.3054,0.15525
64.3104,0.15566
64.3154,0.15601
64.3204,0.15656
64.3254,0.15776
64.3304,0.15732
64.3354,0.15714
64.3404,0.15801
64.3454,0.1583
64.3504,0.15929
64.3554,0.15986
64.3604,0.15968
64.3654,0.1605
64.3704,0.16188
64.3754,0.16196
64.3804,0.16224
64.3854,0.16262
64.3904,0.16427
64.3954,0.16322
64.4004,0.16132
64.4054,0.16017
64.4104,0.16001
64.4154,0.15988
64.4204,0.15889
64.4254,0.15807
64.4304,0.15752
64.4354,0.15786
64.4404,0.15833
64.4454,0.15809
64.4504,0.15892
64.4554,0.15936
64.4604,0.15848
64.4654,0.15818
64.4704,0.15904
64.4754,0.15901
64.4804,0.15919
64.4854,0.15971
64.4904,0.16057
64.4954,0.16064
64.5004,0.16019
64.5054,0.1601
64.5104,0.16037
64.5154,0.16228
64.5204,0.16308
64.5254,0.1628
64.5304,0.16375
64.5354,0.16358
64.5404,0.16304
64.5454,0.16222
64.5504,0.16115
64.5554,0.16044
64.5604,0.15986
64.5654,0.16076
64.5704,0.16004
64.5754,0.15793
64.5804,0.15697
64.5854,0.15686
64.5904,0.15765
64.5954,0.15829
64.6004,0.15761
64.6054,0.15706
64.6104,0.15796
64.6154,0.15829
64.6204,0.15726
64.6254,0.15664
64.6304,0.15802
64.6354,0.16001
64.6404,0.1599
64.6454,0.16004
64.6504,0.16081
64.6554,0.16252
64.6604,0.16302
64.6654,0.16282
64.6704,0.16316
64.6754,0.16337
64.6804,0.16412
64.6854,0.16507
64.6904,0.16287
64.6954,0.16329
64.7004,0.16182
64.7054,0.1603
64.7104,0.15747
64.7154,0.15629
64.7204,0.15577
64.7254,0.15527
64.7304,0.15444
64.7354,0.15503
64.7404,0.1545
64.7454,0.15528
64.7504,0.15437
64.7554,0.15541
64.7604,0.15646
64.7654,0.15894
64.7704,0.16054
64.7754,0.16041
64.7804,0.16053
64.7854,0.1606
64.7904,0.16015
64.7954,0.16087
64.8004,0.16016
64.8054,0.15974
64.8104,0.15893
64.8154,0.1583
64.8204,0.15627
64.8254,0.15546
64.8304,0.15542
64.8354,0.15474
64.8404,0.15558
64.8454,0.15648
64.8504,0.15529
64.8554,0.15605
64.8604,0.15641
64.8654,0.15671
64.8704,0.15691
64.8754,0.15838
64.8804,0.15958
64.8854,0.16038
64.8904,0.16145
64.8954,0.16217
64.9004,0.1611
64.9054,0.16137
64.9104,0.16081
64.9154,0.161
64.9204,0.16108
64.9254,0.16099
64.9304,0.16115
64.9354,0.16043
64.9404,0.15989
64.9454,0.15949
64.9504,0.1591
64.9554,0.15777
64.9604,0.15749
64.9654,0.15918
64.9704,0.15877
64.9754,0.15872
64.9804,0.15947
64.9854,0.15909
64.9904,0.15979
64.9954,0.16064
65.0004,0.16116
65.0054,0.1602
65.0104,0.16149
65.0154,0.16212
65.0204,0.16076
65.0254,0.16284
65.0304,0.16443
65.0354,0.16468
65.0404,0.1657
65.0454,0.16757
65.0504,0.16963
65.0554,0.17168
65.0604,0.17433
65.0654,0.1777
65.0704,0.18037
65.0754,0.18436
65.0804,0.1868
65.0854,0.1892
65.0904,0.19216
65.0954,0.19572
65.1004,0.19851
65.1054,0.20087
65.1104,0.20362
65.1154,0.20668
65.1204,0.21002
65.1254,0.21452
65.1304,0.21885
65.1354,0.22276
65.1404,0.22751
65.1454,0.23107
65.1504,0.23337
65.1554,0.23549
65.1604,0.23709
65.1654,0.23829
65.1704,0.23912
65.1754,0.23897
65.1804,0.23918
65.1854,0.23799
65.1904,0.2366
65.1954,0.23444
65.2004,0.232
65.2054,0.22917
65.2104,0.2268
65.2154,0.22674
65.2204,0.2261
65.2254,0.22357
65.2304,0.22085
65.2354,0.21665
65.2404,0.21411
65.2454,0.21175
65.2504,0.2092
65.2554,0.20779
65.2604,0.20686
65.2654,0.20465
65.2704,0.20036
65.2754,0.19697
65.2804,0.19555
65.2854,0.19369
65.2904,0.19187
65.2954,0.18932
65.3004,0.18611
65.3054,0.1814
65.3104,0.17832
65.3154,0.17604
65.3204,0.1737
65.3254,0.1718
65.3304,0.16926
65.3354,0.16701
65.3404,0.16423
65.3454,0.16427
65.3504,0.16454
65.3554,0.16359
65.3604,0.16334
65.3654,0.16169
65.3704,0.15956
65.3754,0.15955
65.3804,0.15909
65.3854,0.15856
65.3904,0.15833
65.3954,0.15901
65.4004,0.1564
65.4054,0.15336
65.4104,0.15359
65.4154,0.15518
65.4204,0.15722
65.4254,0.15897
65.4304,0.15885
65.4354,0.15905
65.4404,0.15987
65.4454,0.16062
65.4504,0.1623
65.4554,0.16393
65.4604,0.16475
65.4654,0.16446
65.4704,0.16413
65.4754,0.16351
65.4804,0.16348
65.4854,0.16359
65.4904,0.16343
65.4954,0.1638
65.5004,0.16309
65.5054,0.16133
65.5104,0.16138
65.5154,0.1619
65.5204,0.1617
65.5254,0.16022
65.5304,0.15994
65.5354,0.15891
65.5404,0.15905
65.5454,0.15824
65.5504,0.15708
65.5554,0.15764
65.5604,0.15736
65.5654,0.15614
65.5704,0.15498
65.5754,0.1542
65.5804,0.1556
65.5854,0.15589
65.5904,0.15603
65.5954,0.15414
65.6004,0.15486
65.6054,0.1553
65.6104,0.15498
65.6154,0.15643
65.6204,0.15771
65.6254,0.15817
65.6304,0.15831
65.6354,0.1571
65.6404,0.15661
65.6454,0.15694
65.6504,0.15819
65.6554,0.15698
65.6604,0.15665
65.6654,0.15687
65.6704,0.15531
65.6754,0.15507
65.6804,0.15727
65.6854,0.15864
65.6904,0.15989
65.6954,0.1601
65.7004,0.15944
65.7054,0.15925
65.7104,0.16029
65.7154,0.16057
65.7204,0.16085
65.7254,0.16176
65.7304,0.16132
65.7354,0.15966
65.7404,0.1597
65.7454,0.15972
65.7504,0.15966
65.7554,0.15961
65.7604,0.15938
65.7654,0.15957
65.7704,0.15936
65.7754,0.15741
65.7804,0.15742
65.7854,0.15705
65.7904,0.15672
65.7954,0.15626
65.8004,0.15585
65.8054,0.15545
65.8104,0.15585
65.8154,0.15669
65.8204,0.15633
65.8254,0.15653
65.8304,0.15863
65.8354,0.15853
65.8404,0.15895
65.8454,0.15804
65.8504,0.15717
65.8554,0.15703
65.8604,0.15736
65.8654,0.15766
65.8704,0.15685
65.8754,0.15671
65.8804,0.15671
65.8854,0.15621
65.8904,0.15608
65.8954,0.15585
65.9004,0.15632
65.9054,0.15656
65.9104,0.15769
65.9154,0.15835
65.9204,0.15798
65.9254,0.15812
65.9304,0.15868
65.9354,0.15774
65.9404,0.15756
65.9454,0.15725
65.9504,0.1572
65.9554,0.15867
65.9604,0.15948
65.9654,0.15889
65.9704,0.15819
65.9754,0.15854
65.9804,0.1592
65.9854,0.15982
65.9904,0.16098
65.9954,0.16111
66.0004,0.1617
66.0054,0.16245
66.0104,0.1618
66.0154,0.16242
66.0204,0.16154
66.0254,0.16203
66.0304,0.16338
66.0354,0.16331
66.0404,0.16257
66.0454,0.16234
66.0504,0.16287
66.0554,0.1627
66.0604,0.16205
66.0654,0.16134
66.0704,0.15977
66.0754,0.16042
66.0804,0.16011
66.0854,0.16037
66.0904,0.16018
66.0954,0.1598
66.1004,0.15972
66.1054,0.15957
66.1104,0.15962
66.1154,0.15964
66.1204,0.15982
66.1254,0.16059
66.1304,0.16009
66.1354,0.15917
66.1404,0.15862
66.1454,0.15939
66.1504,0.16042
66.1554,0.15952
66.1604,0.1577
66.1654,0.15678
66.1704,0.15578
66.1754,0.15613
66.1804,0.15579
66.1854,0.156
66.1904,0.15642
66.1954,0.15477
66.2004,0.15383
66.2054,0.15302
66.2104,0.15478
66.2154,0.15712
66.2204,0.15799
66.2254,0.16003
66.2304,0.15984
66.2354,0.15993
66.2404,0.16156
66.2454,0.16322
66.2504,0.16278
66.2554,0.16112
66.2604,0.16089
66.2654,0.16118
66.2704,0.15986
66.2754,0.15927
66.2804,0.1574
66.2854,0.15652
66.2904,0.15674
66.2954,0.15604
66.3004,0.15544
66.3054,0.15579
66.3104,0.1575
66.3154,0.15748
66.3204,0.1565
66.3254,0.15696
66.3304,0.15728
66.3354,0.15807
66.3404,0.15898
66.3454,0.15896
66.3504,0.15837
66.3554,0.15785
66.3604,0.15828
66.3654,0.15889
66.3704,0.15921
66.3754,0.15902
66.3804,0.1598
66.3854,0.16038
66.3904,0.16186
66.3954,0.16263
66.4004,0.16131
66.4054,0.16117
66.4104,0.16105
66.4154,0.16156
66.4204,0.16055
66.4254,0.15926
66.4304,0.15855
66.4354,0.15697
66.4404,0.15613
66.4454,0.1545
66.4504,0.15422
66.4554,0.15535
66.4604,0.15583
66.4654,0.15487
66.4704,0.15421
66.4754,0.15542
66.4804,0.15683
66.4854,0.15818
66.4904,0.15985
66.4954,0.15987
66.5004,0.15862
66.5054,0.15813
66.5104,0.15793
66.5154,0.1574
66.5204,0.15809
66.5254,0.15772
66.5304,0.15672
66.5354,0.15688
66.5404,0.15643
66.5454,0.15481
66.5504,0.15438
66.5554,0.15589
66.5604,0.15633
66.5654,0.15757
66.5704,0.1584
66.5754,0.1588
66.5804,0.16023
66.5854,0.16094
66.5904,0.16039
66.5954,0.16065
66.6004,0.16119
66.6054,0.16135
66.6104,0.16133
66.6154,0.16121
66.6204,0.16035
66.6254,0.15994
66.6304,0.15949
66.6354,0.15768
66.6404,0.15712
66.6454,0.15824
66.6504,0.15858
66.6554,0.15844
66.6604,0.15797
66.6654,0.15737
66.6704,0.15731
66.6754,0.15717
66.6804,0.15732
66.6854,0.15791
66.6904,0.15919
66.6954,0.15941
66.7004,0.15821
66.7054,0.15672
66.7104,0.1567
66.7154,0.15755
66.7204,0.15784
66.7254,0.15772
66.7304,0.15818
66.7354,0.15729
66.7404,0.15632
66.7454,0.15636
66.7504,0.1563
66.7554,0.15668
66.7604,0.15691
66.7654,0.15697
66.7704,0.15652
66.7754,0.15661
66.7804,0.15733
66.7854,0.15776
66.7904,0.15912
66.7954,0.16025
66.8004,0.15927
66.8054,0.15915
66.8104,0.15891
66.8154,0.1588
66.8204,0.15861
66.8254,0.15901
66.8304,0.15861
66.8354,0.15764
66.8404,0.1567
66.8454,0.15549
66.8504,0.15502
66.8554,0.15509
66.8604,0.15391
66.8654,0.15459
66.8704,0.15503
66.8754,0.15595
66.8804,0.1568
66.8854,0.1576
66.8904,0.15783
66.8954,0.15721
66.9004,0.15654
66.9054,0.15686
66.9104,0.15696
66.9154,0.15785
66.9204,0.15726
66.9254,0.15772
66.9304,0.15824
66.9354,0.15731
66.9404,0.15734
66.9454,0.15759
66.9504,0.15967
66.9554,0.16052
66.9604,0.16024
66.9654,0.16108
66.9704,0.16091
66.9754,0.16062
66.9804,0.15984
66.9854,0.15813
66.9904,0.15827
66.9954,0.15784
67.0004,0.15812
67.0054,0.15817
67.0104,0.15864
67.0154,0.1586
67.0204,0.1581
67.0254,0.15846
67.0304,0.15989
67.0354,0.16062
67.0404,0.1616
67.0454,0.1619
67.0504,0.16256
67.0554,0.16132
67.0604,0.15957
67.0654,0.15848
67.0704,0.1582
67.0754,0.15869
67.0804,0.15865
67.0854,0.15683
67.0904,0.15709
67.0954,0.15819
67.1004,0.15861
67.1054,0.15887
67.1104,0.16007
67.1154,0.15916
67.1204,0.15962
67.1254,0.16023
67.1304,0.16006
67.1354,0.15936
67.1404,0.16005
67.1454,0.1598
67.1504,0.15832
67.1554,0.15705
67.1604,0.15512
67.1654,0.15423
67.1704,0.15533
67.1754,0.15501
67.1804,0.15433
67.1854,0.15438
67.1904,0.15595
67.1954,0.15676
67.2004,0.1568
67.2054,0.15706
67.2104,0.15773
67.2154,0.15933
67.2204,0.15973
67.2254,0.15935
67.2304,0.1602
67.2354,0.16139
67.2404,0.16159
67.2454,0.1593
67.2504,0.15805
67.2554,0.157
67.2604,0.15646
67.2654,0.1565
67.2704,0.15635
67.2754,0.15636
67.2804,0.15768
67.2854,0.15702
67.2904,0.15656
67.2954,0.15618
67.3004,0.15828
67.3054,0.15776
67.3104,0.15991
67.3154,0.16116
67.3204,0.16217
67.3254,0.16214
67.3304,0.16119
67.3354,0.16167
67.3404,0.16256
67.3454,0.1623
67.3504,0.16312
67.3554,0.16246
67.3604,0.16295
67.3654,0.16178
67.3704,0.16048
67.3754,0.15991
67.3804,0.16048
67.3854,0.15998
67.3904,0.15881
67.3954,0.159
67.4004,0.15816
67.4054,0.15623
67.4104,0.15541
67.4154,0.15487
67.4204,0.15401
67.4254,0.15522
67.4304,0.15511
67.4354,0.15475
67.4404,0.15708
67.4454,0.1568
67.4504,0.15654
67.4554,0.15647
67.4604,0.15681
67.4654,0.15769
67.4704,0.15792
67.4754,0.15714
67.4804,0.15691
67.4854,0.15626
67.4904,0.15617
67.4954,0.15566
67.5004,0.15526
67.5054,0.15425
67.5104,0.15475
67.5154,0.1555
67.5204,0.15503
67.5254,0.15574
67.5304,0.15698
67.5354,0.15597
67.5404,0.15676
67.5454,0.1572
67.5504,0.15661
67.5554,0.15726
67.5604,0.15808
67.5654,0.15936
67.5704,0.15973
67.5754,0.15997
67.5804,0.15999
67.5854,0.1591
67.5904,0.1592
67.5954,0.1589
67.6004,0.15829
67.6054,0.15823
67.6104,0.15793
67.6154,0.15712
67.6204,0.15559
67.6254,0.1548
67.6304,0.15409
67.6354,0.15452
67.6404,0.15617
67.6454,0.15705
67.6504,0.15632
67.6554,0.15636
67.6604,0.15585
67.6654,0.15661
67.6704,0.15638
67.6754,0.15622
67.6804,0.15778
67.6854,0.15932
67.6904,0.15907
67.6954,0.15842
67.7004,0.15801
67.7054,0.15901
67.7104,0.15953
67.7154,0.15988
67.7204,0.15982
67.7254,0.16056
67.7304,0.16158
67.7354,0.1599
67.7404,0.16011
67.7454,0.16018
67.7504,0.16098
67.7554,0.16093
67.7604,0.16039
67.7654,0.16088
67.7704,0.16153
67.7754,0.16083
67.7804,0.16203
67.7854,0.16277
67.7904,0.16267
67.7954,0.1611
67.8004,0.16023
67.8054,0.15915
67.8104,0.15921
67.8154,0.15885
67.8204,0.15778
67.8254,0.15806
67.8304,0.15806
67.8354,0.1564
67.8404,0.155
67.8454,0.15535
67.8504,0.15646
67.8554,0.15654
67.8604,0.15682
67.8654,0.15629
67.8704,0.15657
67.8754,0.15704
67.8804,0.15549
67.8854,0.155
67.8904,0.15538
67.8954,0.15552
67.9004,0.15586
67.9054,0.15509
67.9104,0.1556
67.9154,0.1557
67.9204,0.15506
67.9254,0.15531
67.9304,0.15423
67.9354,0.15534
67.9404,0.15642
67.9454,0.15632
67.9504,0.15693
67.9554,0.15749
67.9604,0.15793
67.9654,0.15961
67.9704,0.15995
67.9754,0.16096
67.9804,0.16075
67.9854,0.16143
67.9904,0.1613
67.9954,0.1617
68.0004,0.16211
68.0054,0.16062
68.0104,0.15924
68.0154,0.15901
68.0204,0.15897
68.0254,0.15878
68.0304,0.15855
68.0354,0.15845
68.0404,0.15769
68.0454,0.15772
68.0504,0.15743
68.0554,0.15598
68.0604,0.1565
68.0654,0.15772
68.0704,0.15755
68.0754,0.15765
68.0804,0.15834
68.0854,0.15845
68.0904,0.15875
68.0954,0.15888
68.1004,0.15788
68.1054,0.15605
68.1104,0.15709
68.1154,0.15764
68.1204,0.15692
68.1254,0.15767
68.1304,0.15605
68.1354,0.15563
68.1404,0.15619
68.1454,0.15598
68.1504,0.15629
68.1554,0.15658
68.1604,0.15773
68.1654,0.15923
68.1704,0.16039
68.1754,0.16235
68.1804,0.16136
68.1854,0.1608
68.1904,0.15996
68.1954,0.159
68.2004,0.15856
68.2054,0.15838
68.2104,0.15907
68.2154,0.15962
68.2204,0.15934
68.2254,0.15916
68.2304,0.15709
68.2354,0.15925
68.2404,0.15964
68.2454,0.16007
68.2504,0.16087
68.2554,0.16171
68.2604,0.16147
68.2654,0.16088
68.2704,0.16018
68.2754,0.16032
68.2804,0.16003
68.2854,0.16016
68.2904,0.15672
68.2954,0.15627
68.3004,0.15595
68.3054,0.15629
68.3104,0.15662
68.3154,0.15617
68.3204,0.15598
68.3254,0.15556
68.3304,0.15405
68.3354,0.15337
68.3404,0.15455
68.3454,0.15786
68.3504,0.15842
68.3554,0.15763
68.3604,0.15636
68.3654,0.15539
68.3704,0.15626
68.3754,0.15859
68.3804,0.15982
68.3854,0.15984
68.3904,0.15976
68.3954,0.1591
68.4004,0.15813
68.4054,0.15855
68.4104,0.15969
68.4154,0.16066
68.4204,0.16143
68.4254,0.16118
68.4304,0.15969
68.4354,0.1589
68.4404,0.15935
68.4454,0.1594
68.4504,0.15874
68.4554,0.15818
68.4604,0.15797
68.4654,0.15837
68.4704,0.15689
68.4754,0.15639
68.4804,0.1575
68.4854,0.15789
68.4904,0.15829
68.4954,0.15774
68.5004,0.15841
68.5054,0.15909
68.5104,0.15994
68.5154,0.15957
68.5204,0.15953
68.5254,0.16098
68.5304,0.16086
68.5354,0.15906
68.5404,0.15966
68.5454,0.16033
68.5504,0.16095
68.5554,0.15945
68.5604,0.15956
68.5654,0.15937
68.5704,0.15956
68.5754,0.15878
68.5804,0.1579
68.5854,0.15807
68.5904,0.16012
68.5954,0.15892
68.6004,0.1581
68.6054,0.15728
68.6104,0.15761
68.6154,0.15737
68.6204,0.156
68.6254,0.15411
68.6304,0.1548
68.6354,0.1549
68.6404,0.15538
68.6454,0.15523
68.6504,0.15491
68.6554,0.15521
68.6604,0.15629
68.6654,0.15765
68.6704,0.15775
68.6754,0.15907
68.6804,0.16119
68.6854,0.16078
68.6904,0.16097
68.6954,0.16083
68.7004,0.16124
68.7054,0.16221
68.7104,0.16167
68.7154,0.16136
68.7204,0.16061
68.7254,0.1597
68.7304,0.15995
68.7354,0.15892
68.7404,0.15996
68.7454,0.16091
68.7504,0.1613
68.7554,0.15941
68.7604,0.15637
68.7654,0.15555
68.7704,0.15493
68.7754,0.15547
68.7804,0.15638
68.7854,0.15624
68.7904,0.157
68.7954,0.15538
68.8004,0.15443
68.8054,0.15348
68.8104,0.15414
68.8154,0.15651
68.8204,0.15823
68.8254,0.15892
68.8304,0.15842
68.8354,0.15861
68.8404,0.15868
68.8454,0.15969
68.8504,0.1604
68.8554,0.16045
68.8604,0.16046
68.8654,0.15987
68.8704,0.16039
68.8754,0.16081
68.8804,0.16049
68.8854,0.15949
68.8904,0.15952
68.8954,0.15886
68.9004,0.15756
68.9054,0.15731
68.9104,0.15839
68.9154,0.15882
68.9204,0.15945
68.9254,0.15827
68.9304,0.15825
68.9354,0.15916
68.9404,0.15997
68.9454,0.1603
68.9504,0.16027
68.9554,0.16002
68.9604,0.15985
68.9654,0.15939
68.9704,0.16011
68.9754,0.16142
68.9804,0.16243
68.9854,0.16209
68.9904,0.16187
68.9954,0.16188
69.0004,0.16172
69.0054,0.16201
69.0104,0.16316
69.0154,0.16348
69.0204,0.1635
69.0254,0.16225
69.0304,0.16025
69.0354,0.1599
69.0404,0.15961
69.0454,0.16048
69.0504,0.16062
69.0554,0.15992
69.0604,0.15936
69.0654,0.15813
69.0704,0.15796
69.0754,0.15743
69.0804,0.15721
69.0854,0.15744
69.0904,0.15737
69.0954,0.15679
69.1004,0.15588
69.1054,0.15554
69.1104,0.15498
69.1154,0.15565
69.1204,0.15734
69.1254,0.15638
69.1304,0.15551
69.1354,0.15543
69.1404,0.15461
69.1454,0.15551
69.1504,0.15715
69.1554,0.15616
69.1604,0.15628
69.1654,0.15617
69.1704,0.15483
69.1754,0.15389
69.1804,0.15613
69.1854,0.15693
69.1904,0.15706
69.1954,0.15957
69.2004,0.159
69.2054,0.15731
69.2104,0.15684
69.2154,0.15692
69.2204,0.15705
69.2254,0.15769
69.2304,0.15916
69.2354,0.15751
69.2404,0.15764
69.2454,0.15702
69.2504,0.15481
69.2554,0.15403
69.2604,0.15373
69.2654,0.15449
69.2704,0.15561
69.2754,0.15653
69.2804,0.15733
69.2854,0.15535
69.2904,0.15552
69.2954,0.15579
69.3004,0.15699
69.3054,0.15822
69.3104,0.15864
69.3154,0.1582
69.3204,0.15821
69.3254,0.15662
69.3304,0.15584
69.3354,0.1551
69.3404,0.15517
69.3454,0.15628
69.3504,0.15726
69.3554,0.15734
69.3604,0.15705
69.3654,0.15723
69.3704,0.15829
69.3754,0.15918
69.3804,0.15961
69.3854,0.16039
69.3904,0.16095
69.3954,0.16105
69.4004,0.16032
69.4054,0.15971
69.4104,0.15948
69.4154,0.15993
69.4204,0.15934
69.4254,0.1593
69.4304,0.15849
69.4354,0.15807
69.4404,0.15714
69.4454,0.15643
69.4504,0.15695
69.4554,0.15712
69.4604,0.15554
69.4654,0.15571
69.4704,0.15434
69.4754,0.15579
69.4804,0.15618
69.4854,0.15626
69.4904,0.15777
69.4954,0.15809
69.5004,0.15846
69.5054,0.15934
69.5104,0.15953
69.5154,0.15984
69.5204,0.15956
69.5254,0.16106
69.5304,0.1607
69.5354,0.16069
69.5404,0.16024
69.5454,0.16051
69.5504,0.16035
69.5554,0.15921
69.5604,0.15781
69.5654,0.15746
69.5704,0.15723
69.5754,0.15725
69.5804,0.15653
69.5854,0.15565
69.5904,0.15441
69.5954,0.15584
69.6004,0.15515
69.6054,0.15573
69.6104,0.15767
69.6154,0.15783
69.6204,0.15726
69.6254,0.15714
69.6304,0.15647
69.6354,0.15602
69.6404,0.15653
69.6454,0.15801
69.6504,0.15702
69.6554,0.15567
69.6604,0.15438
69.6654,0.15385
69.6704,0.15527
69.6754,0.15663
69.6804,0.15787
69.6854,0.15967
69.6904,0.16068
69.6954,0.16044
69.7004,0.15997
69.7054,0.15911
69.7104,0.15975
69.7154,0.1614
69.7204,0.16142
69.7254,0.15907
69.7304,0.15734
69.7354,0.15638
69.7404,0.15534
69.7454,0.15499
69.7504,0.15578
69.7554,0.1561
69.7604,0.1569
69.7654,0.15743
69.7704,0.1573
69.7754,0.1553
69.7804,0.15574
69.7854,0.15596
69.7904,0.15634
69.7954,0.15615
69.8004,0.1557
69.8054,0.15505
69.8104,0.15491
69.8154,0.15521
69.8204,0.1556
69.8254,0.15404
69.8304,0.15512
69.8354,0.15597
69.8404,0.15755
69.8454,0.15859
69.8504,0.15865
69.8554,0.1586
69.8604,0.15728
69.8654,0.15587
69.8704,0.15551
69.8754,0.15493
69.8804,0.15625
69.8854,0.15585
69.8904,0.15586
69.8954,0.15417
69.9004,0.15454
69.9054,0.15569
69.9104,0.15741
69.9154,0.15884
69.9204,0.15915
69.9254,0.15834
69.9304,0.15854
69.9354,0.15725
69.9404,0.15803
69.9454,0.1577
69.9504,0.15818
69.9554,0.15679
69.9604,0.15556
69.9654,0.1549
69.9704,0.15356
69.9754,0.15539
69.9804,0.15591
69.9854,0.15744
69.9904,0.1583
69.9954,0.15819
70.0004,0.1579
70.0054,0.15758
70.0104,0.15804
70.0154,0.15804
70.0204,0.15796
70.0254,0.15836
70.0304,0.15614
70.0354,0.15587
70.0404,0.1543
70.0454,0.15458
70.0504,0.15504
70.0554,0.15566
70.0604,0.15608
70.0654,0.15502
70.0704,0.15552
70.0754,0.1552
70.0804,0.15556
70.0854,0.15701
70.0904,0.1583
70.0954,0.15858
70.1004,0.1596
70.1054,0.15913
70.1104,0.15772
70.1154,0.15651
70.1204,0.15684
70.1254,0.15606
70.1304,0.15545
70.1354,0.15619
70.1404,0.15725
70.1454,0.15632
70.1504,0.15676
70.1554,0.15613
70.1604,0.15678
70.1654,0.1582
70.1704,0.16004
70.1754,0.16008
70.1804,0.15986
70.1854,0.15992
70.1904,0.15989
70.1954,0.16
70.2004,0.16157
70.2054,0.16063
70.2104,0.15775
70.2154,0.15676
70.2204,0.15613
70.2254,0.15542
70.2304,0.15613
70.2354,0.15799
70.2404,0.15964
70.2454,0.15943
70.2504,0.15726
70.2554,0.15652
70.2604,0.15498
70.2654,0.15726
70.2704,0.15863
70.2754,0.15972
70.2804,0.15895
70.2854,0.15828
70.2904,0.1562
70.2954,0.15675
70.3004,0.15735
70.3054,0.15711
70.3104,0.15571
70.3154,0.15634
70.3204,0.15701
70.3254,0.15676
70.3304,0.15587
70.3354,0.15694
70.3404,0.15759
70.3454,0.15803
70.3504,0.156
70.3554,0.15352
70.3604,0.1541
70.3654,0.15577
70.3704,0.15797
70.3754,0.15643
70.3804,0.15452
70.3854,0.15382
70.3904,0.15479
70.3954,0.15425
70.4004,0.15589
70.4054,0.15605
70.4104,0.15876
70.4154,0.1596
70.4204,0.1599
70.4254,0.15704
70.4304,0.15817
70.4354,0.15967
70.4404,0.16213
70.4454,0.16157
70.4504,0.16162
70.4554,0.16055
70.4604,0.16002
70.4654,0.15908
70.4704,0.15792
70.4754,0.1561
70.4804,0.159
70.4854,0.15942
70.4904,0.15858
70.4954,0.15673
70.5004,0.15568
70.5054,0.15495
70.5104,0.15437
70.5154,0.15452
70.5204,0.15468
70.5254,0.15627
70.5304,0.15777
70.5354,0.157
70.5404,0.15605
70.5454,0.15542
70.5504,0.15429
70.5554,0.15377
70.5604,0.15438
70.5654,0.15571
70.5704,0.15684
70.5754,0.15692
70.5804,0.15616
70.5854,0.15709
70.5904,0.15923
70.5954,0.15907
70.6004,0.16115
70.6054,0.16138
70.6104,0.16232
70.6154,0.1619
70.6204,0.16024
70.6254,0.16091
70.6304,0.16208
70.6354,0.16319
70.6404,0.1601
70.6454,0.1579
70.6504,0.16081
70.6554,0.16197
70.6604,0.16264
70.6654,0.16322
70.6704,0.1644
70.6754,0.16611
70.6804,0.16674
70.6854,0.16729
70.6904,0.16857
70.6954,0.17151
70.7004,0.17186
70.7054,0.16976
70.7104,0.16907
70.7154,0.17177
70.7204,0.17221
70.7254,0.17176
70.7304,0.171
70.7354,0.17158
70.7404,0.17061
70.7454,0.16736
70.7504,0.16641
70.7554,0.16615
70.7604,0.16492
70.7654,0.16323
70.7704,0.16016
70.7754,0.15767
70.7804,0.157
70.7854,0.15775
70.7904,0.1562
70.7954,0.15725
70.8004,0.15752
70.8054,0.15536
70.8104,0.15344
70.8154,0.15371
70.8204,0.15292
70.8254,0.15612
70.8304,0.15789
70.8354,0.15847
70.8404,0.15847
70.8454,0.15606
70.8504,0.15297
70.8554,0.15251
70.8604,0.15393
70.8654,0.15604
70.8704,0.15686
70.8754,0.15815
70.8804,0.15576
70.8854,0.15666
70.8904,0.15887
70.8954,0.15977
70.9004,0.16191
70.9054,0.16443
70.9104,0.16582
70.9154,0.16714
70.9204,0.16557
70.9254,0.16501
70.9304,0.1632
70.9354,0.16358
70.9404,0.16193
70.9454,0.16062
70.9504,0.16024
70.9554,0.16042
70.9604,0.15816
70.9654,0.15699
70.9704,0.15542
70.9754,0.15606
70.9804,0.15753
70.9854,0.15836
70.9904,0.1579
70.9954,0.1596
71.0004,0.16019
71.0054,0.15813
71.0104,0.1558
71.0154,0.15618
71.0204,0.15549
71.0254,0.15546
71.0304,0.15506
71.0354,0.1544
71.0404,0.15538
71.0454,0.15709
71.0504,0.15624
71.0554,0.15387
71.0604,0.15357
71.0654,0.15637
71.0704,0.15694
71.0754,0.1599
71.0804,0.1598
71.0854,0.16156
71.0904,0.1624
71.0954,0.16379
71.1004,0.16093
71.1054,0.15927
71.1104,0.15902
71.1154,0.15981
71.1204,0.15795
71.1254,0.15761
71.1304,0.15712
71.1354,0.15966
71.1404,0.15929
71.1454,0.15884
71.1504,0.15851
71.1554,0.1589
71.1604,0.15908
71.1654,0.15941
71.1704,0.1587
71.1754,0.15807
71.1804,0.15814
71.1854,0.15692
71.1904,0.15586
71.1954,0.15665
71.2004,0.15496
71.2054,0.15256
71.2104,0.15363
71.2154,0.15503
71.2204,0.15749
71.2254,0.15866
71.2304,0.15729
71.2354,0.15583
71.2404,0.15751
71.2454,0.15801
71.2504,0.15596
71.2554,0.15556
71.2604,0.15613
71.2654,0.15777
71.2704,0.15542
71.2754,0.1541
71.2804,0.1529
71.2854,0.15534
71.2904,0.15746
71.2954,0.15604
71.3004,0.1559
71.3054,0.15473
71.3104,0.15512
71.3154,0.15468
71.3204,0.15286
71.3254,0.15741
71.3304,0.16072
71.3354,0.16312
71.3404,0.16383
71.3454,0.1653
71.3504,0.16604
71.3554,0.16506
71.3604,0.16778
71.3654,0.16981
71.3704,0.17102
71.3754,0.17098
71.3804,0.16833
71.3854,0.16607
71.3904,0.16462
71.3954,0.16339
71.4004,0.15881
71.4054,0.15883
71.4104,0.15766
71.4154,0.15385
71.4204,0.15257
71.4254,0.15232
71.4304,0.15313
71.4354,0.15857
71.4404,0.15918
71.4454,0.15839
71.4504,0.1577
71.4554,0.16008
71.4604,0.15961
71.4654,0.1592
71.4704,0.16176
71.4754,0.16332
71.4804,0.16303
71.4854,0.16099
71.4904,0.15493
71.4954,0.15229
71.5004,0.15143
71.5054,0.15332
71.5104,0.15489
71.5154,0.15512
71.5204,0.15894
71.5254,0.16104
71.5304,0.16161
71.5354,0.16273
71.5404,0.16391
71.5454,0.16588
71.5504,0.16878
71.5554,0.16759
71.5604,0.16553
71.5654,0.1648
71.5704,0.16353
71.5754,0.16146
71.5804,0.16034
71.5854,0.15928
71.5904,0.15894
71.5954,0.15635
71.6004,0.15466
71.6054,0.15173
71.6104,0.15565
71.6154,0.15976
71.6204,0.15896
71.6254,0.16112
71.6304,0.16021
71.6354,0.15665
71.6404,0.15298
71.6454,0.15383
71.6504,0.15747
71.6554,0.15771
71.6604,0.15826
71.6654,0.15731
71.6704,0.15362
71.6754,0.15548
71.6804,0.15469
71.6854,0.15427
71.6904,0.15428
71.6954,0.15625
71.7004,0.15672
71.7054,0.15599
71.7104,0.15537
71.7154,0.15651
71.7204,0.15586
71.7254,0.15508
71.7304,0.15427
71.7354,0.15442
71.7404,0.15408
71.7454,0.1558
71.7504,0.15641
71.7554,0.15623
71.7604,0.1616
71.7654,0.16511
71.7704,0.16526
71.7754,0.16562
71.7804,0.16838
71.7854,0.16846
71.7904,0.16676
71.7954,0.16928
71.8004,0.1716
71.8054,0.17207
71.8104,0.17145
71.8154,0.1648
71.8204,0.1636
71.8254,0.16417
71.8304,0.16224
71.8354,0.15717
71.8404,0.15523
71.8454,0.15509
71.8504,0.15207
71.8554,0.15168
71.8604,0.15403
71.8654,0.15619
71.8704,0.15831
71.8754,0.15711
71.8804,0.15609
71.8854,0.16441
71.8904,0.17314
71.8954,0.17602
71.9004,0.17657
71.9054,0.17934
71.9104,0.17764
71.9154,0.17437
71.9204,0.17109
71.9254,0.17076
71.9304,0.17137
71.9354,0.17343
71.9404,0.17165
71.9454,0.16861
71.9504,0.16731
71.9554,0.16914
71.9604,0.17325
71.9654,0.17517
71.9704,0.17773
71.9754,0.18172
71.9804,0.18696
71.9854,0.19002
71.9904,0.18782
71.9954,0.18867
72.0004,0.18746
72.0054,0.18501
72.0104,0.18744
72.0154,0.18421
72.0204,0.18258
72.0254,0.18003
72.0304,0.17833
72.0354,0.17911
72.0404,0.17639
72.0454,0.18135
72.0504,0.17351
72.0554,0.17483
72.0604,0.17978
72.0654,0.17579
72.0704,0.17517
72.0754,0.17842
72.0804,0.18187
72.0854,0.18256
72.0904,0.1815
72.0954,0.18166
72.1004,0.17943
72.1054,0.18759
72.1104,0.19359
72.1154,0.19871
72.1204,0.20207
72.1254,0.20277
72.1304,0.2035
72.1354,0.20966
72.1404,0.21513
72.1454,0.2149
72.1504,0.2184
72.1554,0.2218
72.1604,0.22583
72.1654,0.23008
72.1704,0.22836
72.1754,0.2302
72.1804,0.23621
72.1854,0.24106
72.1904,0.23939
72.1954,0.2471
72.2004,0.25857
72.2054,0.27381
72.2104,0.27164
72.2154,0.27135
72.2204,0.27697
72.2254,0.28599
72.2304,0.29459
72.2354,0.29508
72.2404,0.29943
72.2454,0.30224
72.2504,0.30553
72.2554,0.30362
72.2604,0.29547
72.2654,0.30421
72.2704,0.30601
72.2754,0.29969
72.2804,0.25339
72.2854,0.28455
72.2904,0.29262
72.2954,0.28806
72.3004,0.28213
